Acq. time (s)=	10
Accumulations=	15
Range (cm-¹)=	150...3700
Windows=	17
Autofocus=	Off
AutoExposure=	Off
Spike filter=	Multiple accum.
Delay time (s)=	0
Binning=	1
Readout mode=	Signal
DeNoise=	Standard
ICS correction=	On
Dark correction=	Off
Inst. Process=	On
Instrument=	LabRAM S3000
Detector=	Synapse
Objective=	x100
Grating=	1800
ND Filter=	100%
Laser (nm)=	632.81 
Slit=	100.021
Hole=	1000.03
Microscope=	Principal
StageXY=	Märzhauser
StageZ=	Märzhauser
X (µm)=	-1134.8
Y (µm)=	21742.6
Z (µm)=	-5.1
Project=	
Sample=	
Site=	
Title=	SPIS_spectra
Remark=	
Date=	17.06.2019 10:35
Operator=	
Acquired=	17.06.2019 10:35:14
Base:Sub=	17.06.2019 10:51:43
150.124	0.663804
150.46	0.690424
150.798	0.628067
151.134	0.621326
151.471	0.75079
151.807	0.828331
152.145	0.887144
152.481	1.0306
152.818	1.20959
153.154	1.42564
153.49	1.57704
153.827	1.63804
154.164	1.69024
154.501	1.6858
154.837	1.6612
155.173	1.62018
155.509	1.52686
155.846	1.45458
156.183	1.32139
156.52	1.20949
156.856	1.11219
157.192	1.045
157.528	0.977587
157.864	0.893979
158.2	0.811333
158.536	0.720623
158.872	0.690027
159.208	0.689332
159.545	0.725819
159.882	0.780672
160.218	0.904666
160.554	1.07471
160.89	1.2086
161.226	1.25544
161.562	1.2601
161.898	1.27262
162.234	1.2293
162.57	1.13415
162.906	1.01805
163.242	0.862393
163.578	0.725846
163.913	0.589204
164.249	0.463123
164.585	0.362781
164.921	0.27883
165.257	0.141182
165.593	0.0428008
165.928	-0.00131443
166.264	-0.00177494
166.6	0.0357969
166.936	0.0913136
167.27	0.158896
167.606	0.226052
167.941	0.298039
168.277	0.397861
168.613	0.462506
168.948	0.468654
169.284	0.480452
169.62	0.518377
169.955	0.483692
170.291	0.654244
170.625	0.761069
170.96	0.665431
171.296	0.336074
171.631	0.14919
171.967	0.226093
172.302	0.415402
172.638	0.591995
172.972	0.667384
173.307	0.643973
173.643	0.496093
173.978	0.330189
174.314	0.16323
174.648	-0.0481381
174.983	-0.174564
175.318	-0.215961
175.654	-0.147434
175.989	0.0830895
176.323	0.0592443
176.658	0.144827
176.994	0.207379
177.329	0.320533
177.663	0.484509
177.998	0.608527
178.333	0.684529
178.667	0.737555
179.002	0.771905
179.337	0.803248
179.673	0.817377
180.006	0.795322
180.341	0.744633
180.677	0.578228
181.01	0.416052
181.345	0.309451
181.68	0.259356
182.014	0.269501
182.349	0.349883
182.684	0.462855
183.018	0.558534
183.353	0.669539
183.688	0.812814
184.021	0.926429
184.356	1.02103
184.69	1.09103
185.025	1.18497
185.36	1.2991
185.693	1.44952
186.028	1.4639
186.361	1.47391
186.696	1.50871
187.031	1.55815
187.365	1.65928
187.699	1.77724
188.033	1.8876
188.368	2.0246
188.701	2.16044
189.036	2.22212
189.369	2.34093
189.704	2.45122
190.037	2.59826
190.372	2.67855
190.705	2.71947
191.04	2.72047
191.373	2.74971
191.708	2.72001
192.041	2.66548
192.375	2.5736
192.709	2.4745
193.043	2.37398
193.376	2.28349
193.711	2.24903
194.044	2.21361
194.379	2.23492
194.712	2.34856
195.045	2.4567
195.379	2.5668
195.712	2.66454
196.047	2.77109
196.38	2.8441
196.714	2.89719
197.047	2.90297
197.38	2.81734
197.714	2.71018
198.047	2.57978
198.38	2.43579
198.715	2.3305
199.047	2.22968
199.38	2.13707
199.715	2.07772
200.048	2.04685
200.38	2.02845
200.715	2.0406
201.047	2.09256
201.38	2.14075
201.714	2.23678
202.047	2.2793
202.38	2.20545
202.714	2.1114
203.047	2.00561
203.38	1.8938
203.712	1.78531
204.046	1.73654
204.379	1.73018
204.712	1.71326
205.044	1.66373
205.378	1.61188
205.711	1.60736
206.043	1.65443
206.376	1.70281
206.709	1.71488
207.043	1.76794
207.375	1.84863
207.708	1.88942
208.04	1.88546
208.373	1.87116
208.707	1.83873
209.039	1.81582
209.371	1.8188
209.704	1.83493
210.036	1.83252
210.369	1.81881
210.702	1.79293
211.035	1.7757
211.367	1.79329
211.7	1.83968
212.032	1.98347
212.364	2.06742
212.696	2.2046
213.029	2.26924
213.361	2.30963
213.693	2.34646
214.027	2.37449
214.359	2.38378
214.691	2.33281
215.024	2.26278
215.356	2.19888
215.688	2.16531
216.02	2.18231
216.352	2.22004
216.684	2.28925
217.016	2.32564
217.349	2.32032
217.681	2.30824
218.013	2.32336
218.345	2.34485
218.677	2.3155
219.009	2.27381
219.341	2.22185
219.673	2.23063
220.005	2.19923
220.337	2.16802
220.669	2.09651
221.001	2.05176
221.333	2.089
221.665	2.149
221.995	2.19438
222.327	2.21423
222.659	2.23711
222.991	2.23442
223.322	2.22786
223.654	2.16903
223.986	2.00078
224.318	1.88927
224.65	1.87853
224.981	1.7411
225.312	1.58529
225.643	1.50196
225.975	1.44984
226.307	1.42722
226.638	1.45151
226.97	1.54148
227.3	1.50974
227.632	1.46365
227.964	1.44464
228.295	1.42718
228.627	1.37615
228.957	1.3937
229.289	1.39076
229.62	1.35803
229.952	1.32216
230.283	1.29797
230.613	1.28683
230.945	1.28119
231.276	1.19009
231.608	1.0653
231.938	0.989619
232.269	0.906826
232.601	0.836055
232.932	0.818048
233.262	0.825695
233.593	0.799703
233.925	0.737808
234.255	0.645205
234.586	0.558304
234.917	0.485423
235.247	0.448607
235.579	0.423751
235.91	0.413763
236.24	0.365374
236.571	0.337961
236.902	0.308706
237.232	0.29066
237.563	0.301492
237.895	0.309793
238.224	0.340945
238.555	0.374978
238.885	0.407794
239.216	0.425109
239.547	0.452979
239.877	0.40577
240.208	0.342856
240.538	0.30106
240.869	0.266195
241.2	0.244104
241.53	0.200402
241.861	0.167922
242.19	0.118224
242.521	0.101826
242.851	0.0760266
243.182	0.0517868
243.511	0.0160503
243.842	-0.000313009
244.172	-0.012419
244.503	-0.0038143
244.832	0.0293405
245.163	0.0671456
245.492	0.10512
245.823	0.14151
246.153	0.203596
246.484	0.180368
246.813	0.15363
247.144	0.0931357
247.473	0.0191359
247.804	-0.0703449
248.133	-0.0871816
248.462	-0.0938661
248.793	-0.0916915
249.122	-0.0811616
249.453	-0.0483651
249.782	0.00212023
250.113	0.0488131
250.442	0.0956114
250.772	0.145603
251.102	0.202618
251.431	0.268956
251.761	0.351271
252.091	0.481361
252.42	0.519424
252.749	0.518656
253.08	0.531638
253.409	0.527774
253.738	0.519561
254.069	0.528072
254.398	0.519893
254.727	0.53268
255.057	0.566043
255.386	0.585862
255.715	0.621443
256.046	0.684139
256.375	0.756212
256.704	0.778421
257.032	0.802763
257.363	0.843752
257.692	0.863829
258.021	0.889686
258.35	0.871152
258.68	0.869477
259.009	0.876566
259.338	0.886011
259.666	0.902047
259.997	0.907301
260.325	0.930297
260.654	0.955299
260.983	1.00794
261.312	1.08521
261.642	1.18027
261.971	1.25449
262.299	1.29165
262.628	1.33597
262.957	1.34963
263.285	1.32217
263.614	1.28131
263.944	1.2382
264.273	1.21784
264.601	1.21434
264.93	1.24229
265.259	1.31274
265.587	1.43387
265.916	1.53193
266.244	1.63489
266.573	1.73634
266.903	1.86102
267.231	2.02047
267.56	2.13332
267.888	2.14136
268.217	2.1267
268.545	1.92368
268.874	1.84367
269.202	1.86389
269.53	1.88096
269.859	1.90217
270.187	1.90471
270.515	1.90796
270.844	1.92107
271.172	1.94085
271.5	1.95508
271.829	1.98394
272.157	2.00129
272.485	2.05315
272.814	2.10544
273.142	2.15813
273.47	2.22276
273.798	2.30292
274.126	2.40465
274.455	2.51304
274.783	2.60378
275.11	2.68532
275.438	2.75468
275.766	2.80895
276.094	2.86942
276.422	2.93465
276.75	2.98548
277.078	3.02209
277.406	3.02879
277.734	3.03274
278.061	3.00553
278.389	2.92637
278.717	2.91493
279.045	2.97447
279.373	3.01464
279.701	3.07243
280.027	3.13857
280.355	3.19345
280.683	3.26016
281.011	3.35294
281.339	3.44619
281.667	3.53424
281.993	3.61348
282.321	3.67439
282.649	3.69361
282.977	3.68901
283.303	3.66073
283.631	3.60543
283.959	3.54285
284.287	3.5194
284.613	3.57378
284.941	3.70406
285.268	3.83634
285.596	3.82296
285.922	3.83943
286.25	3.79482
286.578	3.75776
286.904	3.75234
287.232	3.75118
287.559	3.7263
287.885	3.69534
288.213	3.69036
288.541	3.72151
288.867	3.77018
289.194	3.81522
289.522	3.83692
289.848	3.82968
290.176	3.84438
290.503	3.86639
290.829	3.93012
291.157	4.00837
291.483	4.09893
291.81	4.20144
292.137	4.3567
292.463	4.48123
292.791	4.5901
293.117	4.65854
293.444	4.68874
293.772	4.71737
294.097	4.75847
294.425	4.80356
294.751	4.89077
295.078	4.94986
295.404	4.95698
295.731	4.92241
296.057	4.87814
296.384	4.86309
296.71	4.84057
297.037	4.87758
297.363	4.9298
297.69	4.99883
298.016	5.06797
298.343	5.15454
298.669	5.26753
298.996	5.36934
299.322	5.44891
299.649	5.53696
299.974	5.63337
300.3	5.73224
300.627	5.79596
300.953	5.83079
301.28	5.86773
301.605	5.92888
301.931	5.97623
302.258	6.05402
302.583	6.13873
302.91	6.22907
303.236	6.39507
303.561	6.55255
303.888	6.7324
304.214	6.88034
304.539	6.9433
304.866	6.95771
305.192	6.92569
305.517	6.89905
305.844	6.893
306.169	6.91667
306.495	6.94836
306.822	7.02573
307.147	7.12472
307.472	7.18509
307.799	7.2055
308.124	7.25234
308.45	7.33219
308.775	7.42515
309.102	7.49832
309.427	7.56392
309.752	7.62211
310.077	7.66549
310.404	7.69702
310.729	7.70795
311.054	7.71173
311.38	7.7365
311.706	7.75064
312.031	7.75161
312.356	7.75683
312.682	7.71558
313.007	7.67841
313.333	7.63752
313.658	7.60908
313.983	7.57915
314.308	7.5657
314.633	7.57644
314.958	7.59682
315.284	7.64912
315.61	7.64644
315.935	7.67658
316.26	7.71114
316.585	7.76066
316.91	7.80916
317.235	7.84315
317.56	7.87319
317.885	7.84804
318.209	7.86743
318.536	7.91902
318.861	7.97513
319.185	8.02326
319.51	8.07263
319.835	8.11207
320.16	8.15177
320.485	8.17578
320.809	8.22649
321.134	8.25309
321.459	8.20048
321.784	8.20179
322.108	8.13235
322.433	8.07582
322.758	8.05886
323.082	7.99961
323.407	7.94293
323.732	7.91418
324.056	7.89553
324.381	7.86278
324.706	7.84176
325.03	7.83328
325.355	7.82665
325.679	7.81923
326.004	7.78149
326.327	7.76307
326.652	7.77881
326.976	7.77341
327.301	7.78802
327.625	7.81269
327.95	7.85528
328.274	7.87597
328.598	7.89702
328.923	7.91869
329.246	7.94159
329.57	7.95737
329.895	7.97
330.219	8.01282
330.543	8.08657
330.868	8.1012
331.192	8.12094
331.515	8.06942
331.839	8.04837
332.164	8.08344
332.488	8.11539
332.812	8.13385
333.135	8.12924
333.459	8.07193
333.783	8.00833
334.108	8.0244
334.43	8.057
334.755	8.05679
335.079	8.05841
335.403	8.02557
335.726	8.05107
336.05	8.0877
336.374	8.11331
336.698	8.13417
337.021	8.17023
337.345	8.20246
337.669	8.24894
337.991	8.30677
338.315	8.37039
338.639	8.42203
338.962	8.44031
339.286	8.46582
339.61	8.50877
339.932	8.55043
340.256	8.5882
340.58	8.64795
340.903	8.57115
341.227	8.56161
341.551	8.53371
341.873	8.53567
342.197	8.53712
342.519	8.56031
342.843	8.58895
343.167	8.63558
343.489	8.69718
343.813	8.74324
344.135	8.77395
344.459	8.76628
344.782	8.76993
345.105	8.85306
345.429	8.82956
345.751	8.81622
346.075	8.87847
346.397	8.89771
346.721	8.97069
347.043	8.89984
347.367	8.92011
347.689	8.84212
348.013	8.8016
348.335	8.87137
348.658	8.99766
348.981	9.01709
349.304	9.03019
349.626	9.07203
349.948	9.11467
350.272	9.13137
350.594	9.13424
350.918	9.1368
351.24	9.16034
351.563	9.18503
351.885	9.23498
352.207	9.28975
352.53	9.33782
352.852	9.39432
353.176	9.39944
353.498	9.37826
353.82	9.36001
354.143	9.36313
354.465	9.37754
354.788	9.38611
355.11	9.38443
355.432	9.38809
355.755	9.45956
356.077	9.488
356.399	9.53936
356.722	9.54866
357.044	9.60826
357.366	9.55102
357.688	9.54732
358.011	9.52819
358.333	9.5525
358.654	9.50674
358.978	9.49974
359.299	9.43536
359.621	9.39503
359.943	9.33709
360.266	9.17993
360.587	9.19273
360.909	8.97624
361.231	9.07578
361.552	9.33246
361.875	9.35506
362.197	9.15073
362.519	9.27465
362.84	9.50365
363.162	9.52096
363.485	9.54857
363.806	9.52656
364.128	9.50718
364.449	9.50828
364.771	9.48642
365.092	9.49541
365.415	9.47567
365.736	9.41376
366.058	9.35298
366.379	9.30099
366.701	9.24815
367.022	9.22069
367.343	9.20763
367.665	9.21804
367.988	9.21083
368.309	9.17181
368.63	9.18131
368.951	9.2095
369.273	9.27042
369.594	9.36393
369.915	9.44401
370.237	9.54561
370.558	9.48487
370.879	9.4518
371.2	9.39007
371.521	9.32353
371.843	9.26748
372.164	9.2151
372.485	9.18216
372.806	9.14677
373.127	9.10895
373.448	9.09125
373.769	9.08011
374.091	9.05562
374.412	9.01507
374.733	8.98366
375.054	8.95631
375.375	8.93693
375.696	8.93751
376.017	8.93768
376.338	8.94208
376.659	8.94465
376.978	8.94841
377.299	8.97981
377.62	9.0412
377.941	9.05966
378.262	9.08445
378.583	9.12004
378.904	9.16485
379.225	9.21115
379.544	9.26445
379.865	9.31256
380.186	9.36989
380.507	9.40787
380.827	9.44165
381.148	9.46768
381.468	9.45936
381.788	9.48271
382.109	9.51769
382.43	9.57312
382.751	9.60541
383.07	9.61789
383.39	9.62306
383.711	9.59789
384.032	9.54979
384.351	9.50737
384.672	9.47871
384.992	9.48813
385.313	9.49122
385.632	9.43842
385.953	9.42374
386.273	9.46851
386.594	9.54771
386.913	9.66203
387.234	9.73489
387.554	9.74455
387.873	9.87515
388.194	9.88427
388.514	9.84233
388.833	9.78478
389.154	9.70944
389.474	9.64987
389.793	9.57875
390.113	9.54432
390.434	9.59607
390.753	9.65576
391.073	9.69955
391.394	9.74643
391.712	9.78794
392.033	9.8338
392.352	9.92838
392.672	9.9653
392.991	10.0047
393.311	10.0539
393.631	10.1344
393.95	10.2103
394.27	10.2791
394.589	10.3357
394.909	10.3469
395.228	10.3818
395.548	10.4079
395.867	10.4405
396.187	10.4721
396.506	10.4957
396.826	10.5212
397.145	10.546
397.465	10.5902
397.784	10.6642
398.104	10.7088
398.422	10.741
398.742	10.7686
399.061	10.7782
399.381	10.8066
399.7	10.8466
400.02	10.8819
400.338	10.9412
400.657	10.9876
400.977	11.0422
401.295	11.0633
401.615	11.0719
401.934	11.069
402.252	11.0949
402.572	11.1284
402.89	11.154
403.21	11.212
403.529	11.3967
403.847	11.4732
404.167	11.5332
404.485	11.5926
404.804	11.6606
405.124	11.8231
405.442	12.0849
405.76	12.2217
406.08	12.3358
406.398	12.4699
406.717	12.5679
407.036	12.6557
407.355	12.7706
407.673	12.8787
407.991	12.9756
408.311	13.1093
408.629	13.2488
408.947	13.4096
409.265	13.6193
409.585	13.8597
409.903	14.0807
410.221	14.178
410.539	14.4814
410.859	14.6754
411.177	14.8897
411.495	15.1379
411.813	15.4573
412.131	15.6965
412.449	15.9091
412.769	16.1559
413.087	16.5265
413.405	16.9012
413.723	17.2369
414.041	17.5527
414.359	17.8834
414.678	18.195
414.996	18.5019
415.314	18.7733
415.632	19.0635
415.95	19.3782
416.268	19.7285
416.586	20.0605
416.903	20.3912
417.221	20.7187
417.539	21.0097
417.858	21.31
418.176	21.6463
418.494	22.0541
418.812	22.5186
419.13	22.9975
419.447	23.4941
419.765	24.0051
420.083	24.5645
420.401	25.131
420.718	25.7187
421.036	26.285
421.354	26.8843
421.671	27.4837
421.989	28.1091
422.307	28.8103
422.624	29.5387
422.942	30.2911
423.259	31.0128
423.577	31.7264
423.895	32.4023
424.211	33.1433
424.528	33.9206
424.846	34.6838
425.163	35.4416
425.481	36.1233
425.798	36.7424
426.116	37.2887
426.433	37.756
426.751	38.2101
427.068	38.6621
427.384	39.0706
427.702	39.4107
428.019	39.6977
428.336	39.864
428.654	39.9583
428.971	39.9926
429.288	39.9634
429.604	39.871
429.922	39.698
430.239	39.4797
430.556	39.1442
430.874	38.7536
431.189	38.3538
431.507	37.8749
431.824	37.3373
432.141	36.753
432.457	36.1283
432.774	35.4564
433.091	34.7982
433.409	34.1086
433.724	33.3337
434.041	32.5109
434.359	31.6897
434.676	30.8883
434.991	30.1454
435.309	29.4334
435.626	28.7857
435.941	28.151
436.258	27.5425
436.575	26.923
436.891	26.3785
437.208	25.7852
437.525	25.2367
437.841	24.6091
438.158	24.0802
438.474	23.5133
438.79	23.0236
439.107	22.6173
439.424	22.2887
439.739	21.8877
440.056	21.5322
440.372	21.1836
440.689	20.8638
441.005	20.5619
441.321	20.254
441.638	19.9997
441.953	19.7582
442.27	19.3927
442.585	19.1478
442.902	19.0744
443.217	18.9491
443.534	18.8579
443.851	18.7703
444.166	18.6976
444.483	18.6116
444.798	18.5413
445.115	18.4971
445.43	18.4616
445.747	18.4075
446.062	18.404
446.377	18.3873
446.694	18.3838
447.009	18.3741
447.326	18.3531
447.641	18.314
447.957	18.3086
448.273	18.3623
448.589	18.4357
448.904	18.5147
449.219	18.5525
449.536	18.5693
449.851	18.5746
450.167	18.5659
450.482	18.5197
450.798	18.4144
451.114	18.304
451.429	18.1577
451.744	18.0294
452.06	17.9329
452.375	17.8457
452.69	17.7037
453.007	17.5708
453.322	17.4258
453.637	17.2582
453.953	17.0787
454.268	16.8694
454.583	16.6233
454.899	16.3653
455.214	16.1063
455.529	15.9206
455.843	15.7466
456.16	15.6019
456.474	15.334
456.789	15.0403
457.104	14.7088
457.42	14.3864
457.735	14.0948
458.05	13.859
458.364	13.6287
458.68	13.4266
458.995	13.2205
459.31	13.0989
459.625	13.0079
459.939	12.9633
460.255	12.8386
460.57	12.7374
460.884	12.6547
461.199	12.5368
461.514	12.4001
461.828	12.2559
462.143	12.1475
462.459	12.0288
462.773	11.9008
463.088	11.7776
463.402	11.5919
463.717	11.6182
464.031	11.5807
464.346	11.5407
464.66	11.4907
464.975	11.5143
465.289	11.562
465.604	11.6206
465.919	11.662
466.234	11.6841
466.548	11.7098
466.863	11.7324
467.177	11.7772
467.491	11.8214
467.806	11.8852
468.12	11.9237
468.434	11.9831
468.749	12.0517
469.063	12.1402
469.377	12.2381
469.691	12.2998
470.006	12.3843
470.32	12.4816
470.634	12.5731
470.947	12.6529
471.261	12.7393
471.575	12.8364
471.889	12.964
472.203	13.0686
472.518	13.1836
472.832	13.3277
473.146	13.5129
473.46	13.7483
473.774	13.9731
474.088	14.2096
474.401	14.4468
474.715	14.6898
475.029	14.9558
475.343	15.238
475.657	15.5251
475.971	15.851
476.285	16.2061
476.597	16.587
476.911	16.9752
477.225	17.3536
477.539	17.7099
477.853	18.0665
478.165	18.444
478.479	18.8444
478.793	19.2799
479.107	19.7652
479.421	20.2952
479.733	20.8793
480.047	21.4803
480.361	22.0788
480.675	22.7002
480.987	23.2987
481.301	23.8794
481.615	24.4659
481.927	25.0736
482.241	25.7291
482.459	26.1974
482.777	26.8853
483.095	27.5333
483.413	28.1444
483.731	28.74
484.048	29.2432
484.366	29.6955
484.683	30.161
485.001	30.684
485.319	31.2964
485.637	31.9197
485.955	32.5558
486.272	33.0982
486.589	33.5964
486.907	34.0936
487.225	34.5136
487.542	34.8796
487.86	35.0678
488.178	35.2104
488.494	35.2793
488.812	35.4557
489.13	35.497
489.448	35.5131
489.764	35.4997
490.082	35.4685
490.399	35.3982
490.717	35.2324
491.033	35.0165
491.351	34.792
491.668	34.6353
491.986	34.4576
492.302	34.2647
492.62	34.0902
492.937	33.8616
493.254	33.6254
493.571	33.2766
493.889	32.8184
494.206	32.3712
494.522	31.8427
494.84	31.2507
495.157	30.6473
495.473	30.0333
495.791	29.3964
496.108	28.7443
496.424	28.1518
496.742	27.664
497.058	27.1942
497.375	26.7221
497.693	26.298
498.009	25.9003
498.326	25.4759
498.642	24.9909
498.959	24.4915
499.277	23.9511
499.592	23.417
499.91	22.9076
500.226	22.4992
500.543	22.1156
500.859	21.7489
501.176	21.3831
501.493	20.9436
501.809	20.437
502.126	19.9242
502.442	19.4347
502.759	19.0056
503.075	18.6423
503.392	18.2886
503.708	17.9338
504.025	17.608
504.341	17.2594
504.658	16.8614
504.973	16.5279
505.289	16.2181
505.606	15.9487
505.922	15.6863
506.239	15.3625
506.554	15.0809
506.871	14.8064
507.187	14.571
507.504	14.3201
507.819	14.0844
508.135	13.8381
508.452	13.6129
508.767	13.4277
509.084	13.2579
509.4	13.0859
509.715	12.9596
510.032	12.8938
510.348	12.9339
510.663	12.9806
510.98	12.9891
511.295	12.987
511.611	12.9607
511.927	12.9133
512.243	12.848
512.558	12.7451
512.875	12.6322
513.19	12.5448
513.506	12.4568
513.822	12.2934
514.138	12.0696
514.453	11.8158
514.768	11.5466
515.085	11.2521
515.4	10.9645
515.715	10.6759
516.032	10.4292
516.347	10.1723
516.662	9.92708
516.977	9.70697
517.293	9.52766
517.609	9.34661
517.924	9.14795
518.239	8.99
518.555	8.85789
518.87	8.77536
519.186	8.70048
519.501	8.57239
519.816	8.44576
520.131	8.2837
520.446	8.11078
520.763	7.9643
521.078	7.83108
521.393	7.72023
521.708	7.65546
522.023	7.58985
522.338	7.51915
522.653	7.43154
522.967	7.3771
523.284	7.40128
523.599	7.40452
523.914	7.36761
524.228	7.31135
524.543	7.22439
524.858	7.11908
525.173	7.00712
525.488	6.9032
525.803	6.80693
526.117	6.74466
526.432	6.71013
526.747	6.67289
527.062	6.67771
527.376	6.6453
527.691	6.66202
528.006	6.61186
528.321	6.58272
528.635	6.5529
528.95	6.52818
529.265	6.52213
529.579	6.49952
529.894	6.46884
530.209	6.4527
530.523	6.4028
530.838	6.30879
531.152	6.07561
531.467	5.84526
531.781	5.73586
532.096	5.66611
532.411	5.66068
532.725	5.68823
533.04	5.74636
533.354	5.764
533.667	5.73587
533.982	5.65047
534.296	5.60911
534.61	5.57853
534.925	5.55373
535.239	5.50121
535.554	5.45104
535.868	5.39625
536.181	5.34718
536.495	5.33306
536.81	5.28736
537.124	5.3194
537.438	5.25439
537.753	5.16911
538.066	5.04968
538.38	4.92138
538.694	4.84137
539.008	4.77538
539.323	4.71605
539.636	4.62323
539.95	4.57337
540.264	4.55794
540.578	4.53062
540.891	4.50992
541.205	4.50165
541.519	4.46477
541.833	4.43012
542.146	4.42448
542.46	4.39299
542.774	4.37425
543.087	4.35457
543.401	4.29963
543.715	4.19919
544.029	4.10251
544.342	3.90541
544.656	3.761
544.97	3.64987
545.282	3.57087
545.596	3.51763
545.91	3.50404
546.223	3.51009
546.537	3.49645
546.849	3.48617
547.163	3.4756
547.477	3.47542
547.79	3.44228
548.104	3.42648
548.416	3.39542
548.73	3.33041
549.044	3.25966
549.356	3.14499
549.67	3.07034
549.982	3.00132
550.296	2.98819
550.609	2.97571
550.922	2.95358
551.236	2.92762
551.548	2.90615
551.862	2.86527
552.174	2.81891
552.488	2.76028
552.8	2.70613
553.114	2.6099
553.426	2.49379
553.74	2.40554
554.052	2.35584
554.366	2.32355
554.678	2.25123
554.992	2.19393
555.304	2.14822
555.616	2.11471
555.93	2.07004
556.242	2.00111
556.555	1.90134
556.867	1.77265
557.181	1.67477
557.493	1.63312
557.805	1.59432
558.119	1.6118
558.431	1.70828
558.744	1.74743
559.056	1.78494
559.368	1.73277
559.681	1.71308
559.993	1.64871
560.307	1.61067
560.619	1.54639
560.931	1.52816
561.244	1.51059
561.556	1.45284
561.868	1.34913
562.181	1.32681
562.493	1.31036
562.805	1.30942
563.117	1.29907
563.43	1.29008
563.742	1.27213
564.054	1.22469
564.367	1.1536
564.679	1.10141
564.99	1.03984
565.302	0.983888
565.615	0.933659
565.927	0.917358
566.239	0.90072
566.551	0.878529
566.864	0.854528
567.175	0.855977
567.487	0.873476
567.799	0.847879
568.11	0.858734
568.423	0.909004
568.735	0.953489
569.047	0.944724
569.358	0.904245
569.67	0.85873
569.981	0.798417
570.294	0.719951
570.606	0.65938
570.917	0.614588
571.229	0.576052
571.54	0.561639
571.852	0.566974
572.163	0.594922
572.475	0.573652
572.788	0.57206
573.099	0.572959
573.411	0.537466
573.722	0.49863
574.033	0.457006
574.345	0.450815
574.656	0.427947
574.968	0.440555
575.279	0.468468
575.59	0.491276
575.902	0.482247
576.213	0.489877
576.524	0.455057
576.836	0.426261
577.147	0.377529
577.458	0.31693
577.769	0.249922
578.081	0.21827
578.392	0.220656
578.703	0.266771
579.014	0.342741
579.325	0.380575
579.637	0.281642
579.948	0.549211
580.259	0.708813
580.57	0.747829
580.881	0.783547
581.192	0.790648
581.503	0.779425
581.814	0.763106
582.126	0.765689
582.437	0.795745
582.746	0.834952
583.057	0.855813
583.368	0.857323
583.679	0.868573
583.99	0.895549
584.301	0.922394
584.612	0.926954
584.922	0.939848
585.233	0.969315
585.544	0.995045
585.855	1.04269
586.166	1.07865
586.476	1.13454
586.786	1.1514
587.097	1.15699
587.408	1.13089
587.718	1.14152
588.029	1.15672
588.339	1.24226
588.649	1.33244
588.96	1.41441
589.271	1.53264
589.58	1.67692
589.891	1.82965
590.202	1.96984
590.513	2.11437
590.822	2.28454
591.133	2.46341
591.443	2.68381
591.754	2.84854
592.063	3.00766
592.374	3.13372
592.685	3.24419
592.994	3.30363
593.304	3.34044
593.615	3.36682
593.924	3.40035
594.235	3.46662
594.545	3.47522
594.854	3.51549
595.165	3.56704
595.476	3.76677
595.785	4.0901
596.095	4.24966
596.404	4.24376
596.715	4.28853
597.025	4.62537
597.334	4.68821
597.645	4.83487
597.954	4.95143
598.264	5.09943
598.575	5.15472
598.883	5.23875
599.194	5.33
599.503	5.43094
599.813	5.55913
600.122	5.69395
600.432	5.83721
600.741	5.95767
601.052	6.08412
601.361	6.18811
601.671	6.31128
601.98	6.41621
602.29	6.45964
602.599	6.45929
602.909	6.4972
603.218	6.54609
603.528	6.57859
603.837	6.60232
604.147	6.61467
604.456	6.57919
604.766	6.60953
605.075	6.6396
605.383	6.71464
605.693	6.6785
606.002	6.69705
606.312	6.72172
606.621	6.72384
606.929	6.67475
607.24	6.63743
607.548	6.56938
607.858	6.50084
608.167	6.4324
608.475	6.35397
608.785	5.67957
609.094	6.20924
609.402	6.11534
609.712	6.05982
610.021	6.01924
610.329	6.01062
610.639	5.94433
610.948	5.88894
611.256	5.80165
611.565	5.80112
611.875	5.79627
612.183	5.74985
612.492	5.64878
612.801	5.59207
613.11	5.54991
613.418	5.52088
613.727	5.47846
614.036	5.46446
614.345	5.46573
614.653	5.48252
614.961	5.47493
615.271	5.4654
615.579	5.49925
615.888	5.56361
616.196	5.66033
616.504	5.75969
616.812	5.81376
617.122	5.87545
617.43	5.89989
617.738	5.87699
618.047	5.90351
618.355	5.95622
618.663	5.99218
618.973	6.06304
619.281	6.19342
619.589	6.45216
619.897	6.69002
620.205	6.79071
620.513	6.8302
620.821	6.92414
621.129	7.00173
621.437	7.07323
621.747	7.16499
622.055	7.2666
622.363	7.44415
622.671	7.59006
622.979	7.70197
623.287	7.95066
623.595	8.1292
623.903	8.30562
624.211	8.51748
624.519	8.75172
624.827	8.97433
625.135	9.16641
625.443	9.3987
625.75	9.63041
626.058	9.99459
626.366	10.1999
626.674	10.4159
626.982	10.7352
627.29	10.8505
627.597	11.0278
627.905	11.1766
628.213	11.2758
628.521	11.4371
628.829	11.6323
629.135	11.7826
629.443	11.9043
629.75	11.9886
630.058	11.947
630.366	11.8704
630.674	11.7916
630.981	11.8601
631.289	11.7832
631.596	11.6891
631.904	11.6074
632.21	11.6539
632.518	11.6817
632.826	11.7731
633.133	11.9577
633.441	12.1788
633.748	12.4469
634.054	12.6487
634.362	12.7769
634.669	12.7678
634.977	12.7627
635.285	12.5662
635.591	12.238
635.898	11.5366
636.206	10.8833
636.513	10.3057
636.819	9.83634
637.126	9.38651
637.434	8.91759
637.741	8.24332
638.047	7.81592
638.355	7.5003
638.662	7.38977
638.969	7.30355
639.275	7.41751
639.583	7.49568
639.89	7.5761
640.196	7.61565
640.503	7.63435
640.81	7.72542
641.116	7.82652
641.424	7.93721
641.731	7.9693
642.037	7.83871
642.344	7.96744
642.651	8.03946
642.957	7.94313
643.264	7.77997
643.57	7.54119
643.877	7.16573
644.184	6.67392
644.49	6.20698
644.797	5.75285
645.103	5.26092
645.41	4.80121
645.717	4.55314
646.022	4.12644
646.329	3.75019
646.635	3.42223
646.942	3.1611
647.248	2.94874
647.555	2.80429
647.86	2.53416
648.167	2.35537
648.473	2.12746
648.78	1.95453
649.085	1.81676
649.392	1.6894
649.698	1.6065
650.005	1.53458
650.31	1.46194
650.617	1.38982
650.923	1.30903
651.229	1.22771
651.535	1.15344
651.842	1.10299
652.147	1.04653
652.452	0.990614
652.759	0.94619
653.065	0.898883
653.371	0.862247
653.677	0.828991
653.982	0.796216
654.289	0.743259
654.594	0.681526
654.901	0.61517
655.206	0.652067
655.511	0.621606
655.818	0.570611
656.123	0.517303
656.429	0.475035
656.735	0.469316
657.04	0.448905
657.346	0.416753
657.652	0.291741
657.957	0.198386
658.263	0.0789275
658.569	0.0024472
658.874	-0.0433657
659.179	-0.067101
659.485	-0.0653793
659.791	-0.0697488
660.096	-0.0568052
660.401	-0.0482502
660.706	-0.046309
661.013	-0.0173389
661.318	0.0332206
661.623	0.0559199
661.928	0.0930817
662.234	0.133682
662.539	0.186946
662.844	0.233567
663.149	0.29071
663.454	0.341626
663.759	0.370381
664.065	0.372671
664.37	0.344991
664.675	0.304126
664.98	0.254249
665.285	0.216046
665.59	0.230963
665.896	0.226781
666.201	0.243849
666.506	0.245164
666.811	0.264587
667.116	0.268952
667.42	0.284713
667.725	0.254877
668.03	0.204767
668.335	0.175305
668.639	0.160292
668.946	0.199365
669.25	0.253936
669.555	0.309
669.86	0.367971
670.164	0.367551
670.469	0.337848
670.774	0.200271
671.078	0.172416
671.383	0.237695
671.688	0.378734
671.992	0.462914
672.297	0.490676
672.602	0.571768
672.906	0.637966
673.211	0.720017
673.515	0.740521
673.82	0.774486
674.124	0.836664
674.429	0.878238
674.733	0.927716
675.036	1.02838
675.341	1.10505
675.645	1.21517
675.95	1.35658
676.254	1.56259
676.559	1.73093
676.863	1.89814
677.168	2.0766
677.472	2.24832
677.776	2.46334
678.079	2.73085
678.384	2.97346
678.688	3.27697
678.992	3.60584
679.297	4.03431
679.601	4.58123
679.905	5.17046
680.208	5.77125
680.512	6.41982
680.817	7.16764
681.121	7.89722
681.425	8.62992
681.728	9.39555
682.032	10.2537
682.336	11.0669
682.641	11.869
682.943	12.644
683.248	13.357
683.552	14.0108
683.856	14.5614
684.159	15.0628
684.463	15.4762
684.767	15.8303
685.071	16.1404
685.374	16.2844
685.678	16.2945
685.982	16.1829
686.284	15.9027
686.588	15.5051
686.892	15.0179
687.195	14.4637
687.499	13.8104
687.803	13.1357
688.106	12.4744
688.41	11.8269
688.713	11.1997
689.016	10.5711
689.32	10.0428
689.622	9.58665
689.926	9.19343
690.23	8.90608
690.533	8.68839
690.837	8.51011
691.139	8.3641
691.443	8.27546
691.747	8.25432
692.049	8.30382
692.353	8.34869
692.655	8.38145
692.959	8.43207
693.261	8.48479
693.565	8.55572
693.867	8.65014
694.171	8.80839
694.474	9.00087
694.777	9.22443
695.08	9.48235
695.383	9.77738
695.685	10.1147
695.989	10.4184
696.291	10.7567
696.595	11.1012
696.897	11.4305
697.201	11.7722
697.503	12.1119
697.807	12.4788
698.109	12.8653
698.411	13.2916
698.714	13.7588
699.017	14.267
699.32	14.7884
699.622	15.3409
699.924	15.9443
700.228	16.5591
700.53	17.2062
700.833	17.886
701.135	18.5723
701.437	19.2532
701.741	19.8589
702.043	20.5034
702.345	21.2165
702.648	21.9274
702.95	22.6519
703.252	23.3256
703.556	24.0249
703.858	24.7682
704.159	25.4822
704.461	26.2029
704.765	26.9094
705.067	27.5954
705.368	28.2931
705.67	28.993
705.974	29.687
706.275	30.353
706.577	30.9749
706.879	31.5482
707.182	32.0293
707.484	32.3434
707.786	32.6184
708.088	32.8818
708.391	33.0368
708.693	33.0867
708.994	33.0557
709.296	32.8693
709.598	32.5321
709.899	32.061
710.203	31.4417
710.504	30.7631
710.806	29.9669
711.107	29.1447
711.409	28.2602
711.711	27.3078
712.012	26.295
712.314	25.2347
712.617	24.2025
712.919	23.1799
713.22	22.1347
713.522	21.1028
713.823	20.0359
714.125	18.9314
714.426	18.2819
714.728	17.3814
715.029	16.5459
715.331	15.7723
715.632	15.0674
715.934	14.3928
716.235	13.7619
716.537	13.1431
716.838	12.5561
717.139	12.0182
717.441	11.4879
717.742	10.9997
718.044	10.5726
718.345	10.1983
718.646	9.84875
718.948	9.52997
719.249	9.21635
719.55	8.88357
719.852	8.59321
720.153	8.37292
720.454	8.15344
720.755	7.92814
721.057	7.71979
721.358	7.52237
721.659	7.30547
721.96	7.13388
722.26	7.02877
722.561	6.96755
722.863	6.9346
723.164	6.90537
723.465	6.87579
723.766	6.84234
724.067	6.82591
724.367	6.7764
724.668	6.74219
724.969	6.68594
725.27	6.62322
725.571	6.58879
725.872	6.51046
726.172	6.43731
726.473	6.35108
726.774	6.32862
727.075	6.32838
727.376	6.35682
727.676	6.38378
727.977	6.39255
728.278	6.34661
728.579	6.29163
728.878	6.24203
729.179	6.14163
729.48	6.0474
729.78	5.95119
730.081	5.87471
730.381	5.73758
730.682	5.58294
730.982	5.44991
731.283	5.37538
731.583	5.34279
731.883	5.33633
732.184	5.36167
732.484	5.40106
732.784	5.4498
733.085	5.45854
733.385	5.51041
733.685	5.53173
733.985	5.55798
734.285	5.5722
734.586	5.60474
734.886	5.62195
735.186	5.57193
735.486	5.51338
735.786	5.45236
736.086	5.35638
736.387	5.2204
736.686	5.03424
736.987	4.89754
737.286	4.78148
737.587	4.63103
737.886	4.48096
738.186	4.38942
738.485	4.2358
738.786	4.07047
739.085	3.94118
739.386	3.85499
739.685	3.71672
739.985	3.58603
740.284	3.46842
740.585	3.36735
740.884	3.29963
741.184	3.23853
741.483	3.18393
741.784	3.13525
742.083	3.06044
742.383	2.97412
742.682	2.88806
742.981	2.8244
743.282	2.78867
743.581	2.75644
743.881	2.7098
744.18	2.65781
744.479	2.59007
744.779	2.52756
745.078	2.49379
745.378	2.48153
745.677	2.46758
745.976	2.46258
746.276	2.48384
746.575	2.52946
746.874	2.59447
747.174	2.64919
747.473	2.73164
747.772	2.79855
748.072	2.87885
748.371	2.95601
748.67	3.03229
748.969	3.1187
749.269	3.18708
749.567	3.2888
749.866	3.37151
750.166	3.45868
750.465	3.56867
750.764	3.69095
751.062	3.85987
751.362	4.07557
751.661	4.32731
751.96	4.60483
752.258	4.9046
752.557	5.24047
752.857	5.59365
753.155	5.97932
753.454	6.38828
753.753	6.78709
754.051	7.1317
754.35	7.40362
754.65	7.6005
754.948	7.73298
755.247	7.78828
755.545	7.75143
755.844	7.64404
756.142	7.45111
756.44	7.19073
756.74	6.88295
757.039	6.55218
757.337	6.1692
757.636	5.72771
757.934	5.27099
758.232	4.81159
758.531	4.34909
758.829	3.90243
759.128	3.4958
759.426	3.10941
759.724	2.759
760.023	2.42193
760.321	2.11386
760.619	1.85022
760.917	1.62372
761.216	1.4369
761.514	1.27209
761.812	1.13436
762.11	1.01874
762.409	0.923091
762.707	0.832537
763.005	0.738367
763.303	0.627875
763.601	0.509596
763.9	0.387366
764.198	0.254807
764.496	0.122745
764.794	0.0512922
765.092	0.00786801
765.39	0.00253111
765.658	0.0415525
765.962	0.113608
766.264	0.199002
766.566	0.308975
766.868	0.434804
767.17	0.564308
767.473	0.709585
767.776	0.821086
768.078	0.946128
768.38	1.05962
768.682	1.17426
768.985	1.26623
769.287	1.37181
769.589	1.47678
769.891	1.6525
770.193	1.86017
770.496	2.08199
770.798	2.2781
771.1	2.43549
771.402	2.59317
771.704	2.78367
772.006	2.95553
772.308	3.10263
772.61	3.23416
772.912	3.35604
773.214	3.45717
773.516	3.51138
773.818	3.54374
774.12	3.71543
774.422	3.82719
774.724	3.95216
775.025	4.05942
775.327	4.11349
775.629	4.14943
775.931	4.19081
776.233	4.22568
776.535	4.25679
776.836	4.27223
777.138	4.2935
777.44	4.27322
777.742	4.16624
778.043	4.02912
778.345	3.88952
778.647	3.80499
778.949	3.81755
779.249	3.9976
779.551	3.93745
779.852	3.91087
780.154	3.91023
780.456	3.90925
780.757	3.901
781.059	3.91109
781.36	3.9587
781.662	4.00993
781.962	3.99629
782.264	3.97627
782.565	3.91121
782.867	3.85054
783.168	3.82453
783.47	3.8502
783.77	3.90474
784.072	3.97231
784.373	4.0488
784.674	4.12856
784.976	4.13995
785.276	4.1851
785.577	4.25189
785.879	4.40301
786.18	4.50688
786.48	4.62713
786.782	4.74521
787.083	4.88737
787.384	4.96632
787.684	5.00781
787.986	5.00944
788.287	4.98286
788.587	4.96128
788.888	4.92382
789.19	4.87325
789.491	4.77128
789.791	4.63628
790.092	4.49772
790.393	4.35837
790.693	4.18933
790.994	3.98826
791.296	3.83351
791.595	3.70156
791.897	3.61131
792.198	3.53982
792.498	3.51816
792.799	3.5092
793.098	3.52325
793.4	3.53663
793.701	3.53062
794	3.51628
794.302	3.51074
794.601	3.49777
794.902	3.46141
795.203	3.41898
795.503	3.37778
795.804	3.37719
796.104	3.36104
796.405	3.32855
796.704	3.29304
797.005	3.23938
797.305	3.20835
797.606	3.1839
797.905	3.14807
798.206	3.09967
798.506	3.07978
798.807	3.04478
799.106	3.03032
799.407	3.04631
799.707	3.08707
800.008	3.11277
800.307	3.22546
800.608	3.38765
800.907	3.52759
801.208	3.6456
801.508	3.71815
801.807	3.82932
802.108	3.91357
802.407	4.01107
802.708	4.09926
803.007	4.22029
803.308	4.35735
803.607	4.55035
803.907	4.79048
804.207	5.00789
804.507	5.18468
804.806	5.35101
805.107	5.55693
805.406	5.80646
805.705	6.04397
806.006	6.34324
806.305	6.65073
806.604	6.93401
806.905	7.1886
807.204	7.41357
807.503	7.62616
807.804	7.83808
808.103	8.05253
808.402	8.27009
808.702	8.48723
809.002	8.67585
809.301	8.8174
809.6	8.95496
809.9	9.0867
810.199	9.22086
810.498	9.26875
810.797	9.28374
811.098	9.29351
811.397	9.34844
811.696	9.41926
811.995	9.50769
812.295	9.59415
812.594	9.68187
812.893	9.73207
813.192	9.74148
813.491	9.73619
813.79	9.7337
814.09	9.73188
814.389	9.72007
814.688	9.71118
814.987	9.87273
815.286	9.80968
815.585	9.71957
815.884	9.59691
816.184	9.66021
816.483	9.65789
816.781	9.70763
817.08	9.71202
817.379	9.70587
817.678	9.6912
817.977	9.66988
818.275	9.6465
818.574	9.61304
818.873	9.55135
819.172	9.54095
819.472	9.55686
819.77	9.59578
820.069	9.68551
820.368	9.75669
820.666	9.79234
820.965	9.80416
821.264	9.76452
821.562	9.76653
821.861	9.77931
822.159	9.79206
822.458	9.77798
822.757	9.78606
823.055	9.77444
823.354	9.71398
823.652	9.71165
823.951	9.74854
824.248	9.80845
824.547	9.92202
824.845	10.0366
825.143	10.1312
825.442	10.1987
825.74	10.2824
826.039	10.3929
826.337	10.4889
826.636	10.5608
826.934	10.612
827.232	10.658
827.531	10.7037
827.828	10.773
828.126	10.8127
828.425	10.8871
828.723	10.9937
829.021	11.0799
829.32	11.1734
829.617	11.3276
829.915	11.427
830.213	11.4865
830.511	11.5646
830.81	11.6649
831.108	11.7505
831.405	11.857
831.703	12
832.001	12.1596
832.299	12.2622
832.596	12.3839
832.894	12.5024
833.193	12.6062
833.491	12.6972
833.787	12.7859
834.086	12.8515
834.384	12.9377
834.682	12.569
834.978	13.1062
835.277	13.3875
835.575	13.5432
835.871	13.6671
836.169	13.7449
836.467	13.8115
836.765	13.891
837.062	13.9693
837.36	14.0557
837.658	14.1592
837.955	14.2228
838.253	14.3204
838.549	14.5051
838.847	14.6697
839.145	14.8423
839.442	15.0151
839.739	15.1167
840.037	15.1866
840.334	15.2524
840.632	15.3189
840.928	15.4064
841.226	15.5
841.524	15.5969
841.82	15.6861
842.118	15.7833
842.415	15.8484
842.712	15.8519
843.009	15.8756
843.307	15.9065
843.603	15.9513
843.901	16.0197
844.197	16.0739
844.495	16.0582
844.791	16.0026
845.089	15.9559
845.385	15.9365
845.683	15.9529
845.979	15.977
846.277	15.9938
846.573	16.0375
846.87	16.0976
847.167	16.1643
847.464	16.2139
847.761	16.2306
848.058	16.2435
848.354	16.209
848.65	16.1787
848.948	16.1666
849.244	16.1872
849.542	16.2139
849.838	16.2427
850.134	16.171
850.431	15.9884
850.727	15.8445
851.024	15.6684
851.321	15.5758
851.617	15.5232
851.914	15.4656
852.211	15.3613
852.507	15.2863
852.804	15.2092
853.1	15.1449
853.396	15.0773
853.692	15.0294
853.989	14.9909
854.285	14.9582
854.581	14.9506
854.878	14.9541
855.174	14.9146
855.47	14.8889
855.766	14.7968
856.063	14.6952
856.359	14.6264
856.655	14.6835
856.951	14.7074
857.248	14.7593
857.544	14.7838
857.84	14.7553
858.136	14.724
858.433	14.6784
858.729	14.6264
859.024	14.52
859.32	14.3725
859.616	14.2067
859.912	14.0545
860.209	13.9205
860.504	13.8096
860.8	13.706
861.096	13.5764
861.391	13.4358
861.687	13.3179
861.983	13.2437
862.28	13.163
862.575	13.0449
862.871	12.9263
863.167	12.8415
863.462	12.7735
863.758	12.7057
864.053	12.6139
864.349	12.5265
864.645	12.4216
864.94	12.3505
865.236	12.2979
865.531	12.2448
865.828	12.2001
866.123	12.1592
866.419	12.0287
866.714	11.8767
867.01	11.7687
867.305	11.7053
867.601	11.6589
867.896	11.6366
868.192	11.5686
868.487	11.5326
868.782	11.4629
869.078	11.3814
869.372	11.3123
869.667	11.2762
869.962	11.2266
870.258	11.2198
870.553	11.2239
870.848	11.225
871.144	11.2315
871.439	11.2426
871.734	11.1697
872.029	11.0711
872.325	10.9713
872.62	10.9008
872.915	10.8617
873.209	10.8113
873.504	10.7431
873.799	10.6331
874.094	10.5674
874.39	10.5138
874.685	10.4698
874.98	10.3853
875.274	10.1483
875.569	10.0012
875.864	9.92466
876.159	9.92431
876.454	9.86662
876.748	9.86606
877.043	9.87283
877.338	9.8121
877.633	9.74905
877.928	9.70866
878.222	9.59392
878.517	9.54576
878.812	9.50931
879.107	9.45605
879.4	9.42045
879.695	9.39001
879.99	9.37304
880.284	9.36038
880.579	9.33674
880.873	9.33138
881.168	9.32206
881.462	9.30152
881.757	9.25329
882.052	9.21914
882.345	9.16652
882.64	9.09649
882.935	9.0323
883.228	8.96933
883.523	8.95078
883.818	8.9187
884.111	8.86243
884.406	8.81341
884.699	8.77908
884.994	8.73517
885.289	8.71164
885.582	8.69386
885.877	8.69629
886.17	8.72515
886.465	8.77061
886.76	8.82162
887.053	8.86844
887.348	8.8777
887.641	8.8795
887.935	8.865
888.229	8.86805
888.523	8.88781
888.817	8.87377
889.111	8.85773
889.406	8.82847
889.699	8.82384
889.993	8.86377
890.287	8.92036
890.581	8.99368
890.874	9.09634
891.167	9.18806
891.462	9.25365
891.755	9.31978
892.049	9.39937
892.343	9.4816
892.637	9.51828
892.93	9.53201
893.225	9.54933
893.518	9.52481
893.811	9.47514
894.105	9.38049
894.398	9.33404
894.692	9.30022
894.985	9.29014
895.278	9.31474
895.573	9.37928
895.866	9.44475
896.16	9.42919
896.453	9.40595
896.746	9.40209
897.04	9.38036
897.333	9.36304
897.626	9.3428
897.92	9.30497
898.213	9.26007
898.506	9.20568
898.8	9.12729
899.093	9.03039
899.386	8.94629
899.678	8.86269
899.973	8.78767
900.265	8.71912
900.558	8.67917
900.851	8.62515
901.145	8.58895
901.438	8.57442
901.73	8.55944
902.023	8.57866
902.317	8.59766
902.61	8.61226
902.903	8.63176
903.195	8.65519
903.488	8.68923
903.782	8.7245
904.075	8.71243
904.367	8.68327
904.66	8.63367
904.952	8.62023
905.246	8.5582
905.539	8.50576
905.831	8.42396
906.124	8.35079
906.417	8.30619
906.709	8.2963
907.002	8.30735
907.294	8.3295
907.588	8.35114
907.88	8.33239
908.173	8.26076
908.465	8.18377
908.758	8.08048
909.05	7.96961
909.343	7.78162
909.635	7.70411
909.928	7.6194
910.22	7.58151
910.512	7.58021
910.805	7.62731
911.097	7.67041
911.389	7.81246
911.682	8.00189
911.974	8.20427
912.266	8.43844
912.559	8.663
912.851	8.8387
913.143	8.89313
913.436	8.86693
913.728	8.70878
914.02	8.45943
914.312	8.12278
914.604	7.76589
914.897	7.47529
915.189	7.30111
915.481	7.14847
915.773	7.03955
916.065	7.2491
916.358	7.21539
916.65	7.14945
916.94	7.03975
917.233	6.93565
917.525	6.83377
917.817	6.77989
918.109	6.7368
918.401	6.73152
918.693	6.83376
918.984	6.924
919.276	6.88881
919.568	6.80855
919.86	6.7065
920.152	6.60983
920.444	6.507
920.734	6.41864
921.026	6.37818
921.318	6.37537
921.61	6.2861
921.902	6.18184
922.193	6.1265
922.485	6.0842
922.777	6.05722
923.068	6.03433
923.359	5.86294
923.651	5.7613
923.943	5.79462
924.235	5.91346
924.525	5.97451
924.817	5.8883
925.109	5.80144
925.399	5.68821
925.691	5.58703
925.983	5.49533
926.273	5.43102
926.565	5.3496
926.857	5.32405
927.147	5.35815
927.439	5.38958
927.73	5.46826
928.021	5.51462
928.312	5.54491
928.604	5.57446
928.894	5.60939
929.186	5.62059
929.476	5.65065
929.768	5.67572
930.06	5.64681
930.35	5.60883
930.641	5.58235
930.932	5.56094
931.223	5.59117
931.515	5.66274
931.805	5.7748
932.096	5.85764
932.387	5.85453
932.678	5.83074
932.968	5.84443
933.26	5.88412
933.55	5.94527
933.841	5.93186
934.132	5.90912
934.423	5.89821
934.713	5.84239
935.004	5.84482
935.294	5.94707
935.586	6.00282
935.876	6.00747
936.167	6.01556
936.457	5.92506
936.747	5.80977
937.039	5.70607
937.329	5.61213
937.62	5.54456
937.91	5.50243
938.201	5.46948
938.491	5.49379
938.781	5.48119
939.072	5.44087
939.362	5.41745
939.652	5.34734
939.943	5.19996
940.233	5.13225
940.523	5.07547
940.814	5.04535
941.104	5.02311
941.395	4.99876
941.685	4.97519
941.975	4.94178
942.265	4.84829
942.556	4.72722
942.846	4.5882
943.135	4.43051
943.426	4.26736
943.716	4.10362
944.006	3.99589
944.296	3.93961
944.587	3.90909
944.876	3.91921
945.166	3.88601
945.456	3.78585
945.747	3.6221
946.036	3.46463
946.326	3.32317
946.616	3.23312
946.906	3.14302
947.196	3.0575
947.486	2.98654
947.775	2.92821
948.065	2.87454
948.354	2.82735
948.645	2.79611
948.935	2.72402
949.224	2.62781
949.514	2.50155
949.803	2.41238
950.093	2.36133
950.382	2.31577
950.673	2.2756
950.963	2.21369
951.252	2.13634
951.541	2.03436
951.831	1.94744
952.12	1.88567
952.41	1.84835
952.699	1.83125
952.988	1.86251
953.278	1.88912
953.567	1.88542
953.856	1.88738
954.146	1.91436
954.435	1.97289
954.724	2.03994
955.014	2.10339
955.303	2.1171
955.592	2.10984
955.881	2.11582
956.171	2.1448
956.46	2.21519
956.749	2.31652
957.038	2.44534
957.328	2.58421
957.617	2.72203
957.906	2.85649
958.195	2.99139
958.484	3.0565
958.773	3.10312
959.063	3.11023
959.352	3.13285
959.641	3.17695
959.93	3.21933
960.219	3.23966
960.507	3.35897
960.796	3.51418
961.085	3.67778
961.374	3.87041
961.663	4.09934
961.952	4.31861
962.241	4.55204
962.529	4.7372
962.818	4.93708
963.107	5.21713
963.395	5.38247
963.684	5.52125
963.973	5.62893
964.261	5.68791
964.55	5.7952
964.839	5.90625
965.128	6.05265
965.415	6.20137
965.704	6.28343
965.993	6.33531
966.282	6.39865
966.569	6.44346
966.858	6.48329
967.147	6.53005
967.436	6.59859
967.723	6.61418
968.012	6.60005
968.301	6.50838
968.588	6.38308
968.877	6.22368
969.166	6.04733
969.454	5.86513
969.742	5.66997
970.03	5.49137
970.319	5.3382
970.607	5.19232
970.895	5.05825
971.182	4.96765
971.471	4.86049
971.76	4.78156
972.047	4.72882
972.336	4.7043
972.624	4.7331
972.912	4.77353
973.2	4.79715
973.487	4.82145
973.776	4.83052
974.063	4.83993
974.352	4.86356
974.64	4.82841
974.927	4.75225
975.216	4.68485
975.503	4.58974
975.792	4.43158
976.079	4.31866
976.367	4.23583
976.654	4.14165
976.943	4.10331
977.23	4.03625
977.518	3.97759
977.805	3.92747
978.094	3.88515
978.381	3.86308
978.669	3.82132
978.956	3.75483
979.243	3.68118
979.531	3.61377
979.818	3.56597
980.107	3.51974
980.394	3.43796
980.682	3.30667
980.969	3.36456
981.256	3.46072
981.544	3.49413
981.831	3.5183
982.119	3.54829
982.406	3.55555
982.693	3.54318
982.981	3.60354
983.268	3.53345
983.555	3.44208
983.843	3.35332
984.13	3.28907
984.417	3.21531
984.705	3.16008
984.992	3.1209
985.278	3.12233
985.566	3.12788
985.853	3.14237
986.14	3.1698
986.427	3.19948
986.715	3.21862
987.001	3.21106
987.288	3.19181
987.575	3.14958
987.863	3.12377
988.149	3.09417
988.436	3.08027
988.723	3.06457
989.011	3.02175
989.297	2.97552
989.584	2.92666
989.87	2.89467
990.157	2.86535
990.444	2.83455
990.732	2.77601
991.018	2.74613
991.305	2.72059
991.591	2.68173
991.878	2.67478
992.164	2.66959
992.452	2.69306
992.739	2.78119
993.025	2.82259
993.311	2.85586
993.598	2.86
993.884	2.8233
994.171	2.78921
994.457	2.70545
994.744	2.53559
995.03	2.58507
995.316	2.68777
995.604	2.70647
995.89	2.78253
996.177	2.8693
996.463	3.04409
996.749	3.29705
997.036	3.60627
997.322	3.97909
997.608	4.39623
997.895	4.83046
998.181	5.2077
998.467	5.5298
998.753	5.7547
999.04	5.88962
999.326	5.93829
999.612	5.88826
999.898	5.80553
1000.18	5.67766
1000.47	5.56984
1000.76	5.43255
1001.04	5.32612
1001.33	5.2056
1001.61	5.06187
1001.9	4.90935
1002.19	4.73203
1002.47	4.51746
1002.76	4.26152
1003.04	4.05304
1003.33	3.82964
1003.62	3.63784
1003.9	3.49115
1004.19	3.33894
1004.47	3.21012
1004.76	3.08011
1005.05	2.93813
1005.33	2.85001
1005.62	2.79663
1005.9	2.80703
1006.19	2.87972
1006.47	2.92636
1006.76	2.97687
1007.04	3.01796
1007.33	2.95731
1007.62	2.87583
1007.9	2.79655
1008.19	2.72549
1008.47	2.64087
1008.76	2.52027
1009.04	2.43936
1009.33	2.40265
1009.61	2.40264
1009.9	2.41624
1010.19	2.44292
1010.47	2.45562
1010.76	2.46465
1011.04	2.43111
1011.33	2.42094
1011.61	2.43293
1011.9	2.45251
1012.18	2.4682
1012.47	2.49921
1012.75	2.52614
1013.04	2.56961
1013.32	2.63044
1013.61	2.71815
1013.89	2.78782
1014.18	2.89635
1014.46	3.01036
1014.75	3.14221
1015.03	3.30503
1015.32	3.48426
1015.6	3.68299
1015.89	3.92875
1016.18	4.19638
1016.46	4.47979
1016.74	4.76608
1017.03	5.10088
1017.31	5.52871
1017.6	6.11994
1017.88	6.71988
1018.17	7.37334
1018.45	8.08852
1018.74	8.87451
1019.02	9.71518
1019.31	10.5985
1019.59	11.4809
1019.88	12.4741
1020.16	13.4601
1020.45	14.5445
1020.73	15.6761
1021.02	16.6289
1021.3	17.4159
1021.59	18.1043
1021.87	18.6363
1022.16	19.0366
1022.44	19.269
1022.72	19.4085
1023.01	19.4298
1023.29	19.3501
1023.58	19.1529
1023.86	18.8732
1024.15	18.5694
1024.43	18.2111
1024.71	17.8274
1025	17.4514
1025.28	17.0928
1025.57	16.7517
1025.85	16.4363
1026.14	16.1078
1026.42	15.7208
1026.7	15.2672
1026.99	14.7705
1027.27	14.2306
1027.56	13.658
1027.84	13.0547
1028.13	12.3588
1028.41	11.6963
1028.69	11.0788
1028.98	10.5068
1029.26	9.91706
1029.55	9.28569
1029.83	8.66447
1030.11	8.09171
1030.4	7.54559
1030.68	7.04131
1030.97	6.58665
1031.25	6.20785
1031.53	5.87758
1031.82	5.56354
1032.1	5.27671
1032.39	4.99026
1032.67	4.71536
1032.95	4.46317
1033.24	4.23147
1033.52	4.01255
1033.8	3.80961
1034.09	3.61532
1034.37	3.41481
1034.66	3.22112
1034.94	3.02201
1035.22	2.85069
1035.51	2.69444
1035.79	2.54955
1036.07	2.42709
1036.36	2.35507
1036.64	2.3233
1036.87	2.32774
1037.16	2.34093
1037.45	2.33624
1037.73	2.2618
1038.02	2.16189
1038.31	2.06149
1038.6	1.94964
1038.88	1.84266
1039.17	1.74427
1039.46	1.66172
1039.75	1.5805
1040.04	1.51253
1040.32	1.48257
1040.61	1.46284
1040.9	1.43057
1041.19	1.39993
1041.47	1.38286
1041.76	1.3806
1042.05	1.37935
1042.34	1.37415
1042.63	1.38025
1042.91	1.39874
1043.2	1.42803
1043.49	1.40874
1043.78	1.38642
1044.06	1.37545
1044.35	1.37261
1044.64	1.36464
1044.92	1.35821
1045.21	1.36186
1045.5	1.33277
1045.79	1.34513
1046.07	1.31899
1046.36	1.40502
1046.65	1.48122
1046.94	1.51894
1047.22	1.56686
1047.51	1.61774
1047.8	1.6716
1048.09	1.6926
1048.37	1.69001
1048.66	1.68841
1048.95	1.72956
1049.23	1.74619
1049.52	1.78815
1049.81	1.86068
1050.09	1.90675
1050.38	2.04073
1050.67	2.19368
1050.96	2.33359
1051.24	2.47754
1051.53	2.64096
1051.82	2.82313
1052.1	3.0496
1052.39	3.26744
1052.68	3.50188
1052.96	3.74023
1053.25	3.98631
1053.54	4.27326
1053.83	4.58045
1054.11	4.85261
1054.4	5.14052
1054.69	5.41163
1054.97	5.76323
1055.26	6.17092
1055.55	6.72262
1055.83	7.27005
1056.12	7.92541
1056.41	8.71644
1056.69	9.6573
1056.98	10.7444
1057.27	11.8907
1057.55	13.1578
1057.84	14.5366
1058.13	15.9789
1058.41	17.4879
1058.7	19.0347
1058.99	20.5998
1059.27	22.102
1059.56	23.7039
1059.84	25.2131
1060.13	26.6023
1060.42	27.8733
1060.7	29.0409
1060.99	30.0615
1061.28	30.9208
1061.56	31.6079
1061.85	32.0932
1062.13	32.4931
1062.42	32.6877
1062.71	32.6348
1062.99	32.393
1063.28	31.7906
1063.57	30.9876
1063.85	29.9543
1064.14	28.8117
1064.42	27.4981
1064.71	25.9787
1065	24.3202
1065.28	22.7973
1065.57	21.3074
1065.85	19.8763
1066.14	18.5797
1066.43	17.2947
1066.71	16.328
1067	15.4089
1067.28	14.664
1067.57	13.9941
1067.86	13.5675
1068.14	13.1357
1068.43	12.7887
1068.71	12.5348
1069	12.3191
1069.28	12.1602
1069.57	12
1069.86	11.8348
1070.14	11.6531
1070.43	11.492
1070.71	11.317
1071	11.1565
1071.28	11.031
1071.57	10.925
1071.86	10.8369
1072.14	10.7776
1072.43	10.7288
1072.71	10.7236
1073	10.7738
1073.28	10.885
1073.57	10.9775
1073.85	11.0526
1074.14	11.1586
1074.42	11.2935
1074.71	11.4714
1074.99	11.6739
1075.28	11.9293
1075.57	12.1311
1075.85	12.3452
1076.14	12.5792
1076.42	12.8207
1076.71	13.04
1076.99	13.2856
1077.28	13.5531
1077.56	13.817
1077.85	14.0994
1078.13	14.3579
1078.42	14.6086
1078.7	14.8652
1078.99	15.1805
1079.27	15.5005
1079.56	15.8017
1079.84	16.1425
1080.13	16.5712
1080.41	16.8531
1080.7	17.0441
1080.98	17.1444
1081.27	17.1798
1081.55	17.1782
1081.84	17.159
1082.12	17.113
1082.41	17.0077
1082.69	16.8253
1082.98	16.6166
1083.26	16.3408
1083.55	16.0715
1083.83	15.6879
1084.12	15.244
1084.4	14.8352
1084.69	14.4344
1084.97	13.8908
1085.25	13.4342
1085.54	13.0021
1085.82	12.5824
1086.11	12.1904
1086.39	11.8135
1086.68	11.3416
1086.96	10.8332
1087.25	10.3724
1087.53	9.91883
1087.82	9.40185
1088.1	9.06965
1088.38	8.72303
1088.67	8.4337
1088.95	8.1927
1089.24	7.87409
1089.52	7.58791
1089.81	7.36193
1090.09	7.12153
1090.38	6.89897
1090.66	6.65431
1090.94	6.47345
1091.23	6.31363
1091.51	6.18093
1091.8	6.00628
1092.08	5.79686
1092.36	5.59115
1092.65	5.41715
1092.93	5.26847
1093.22	5.12424
1093.5	4.9363
1093.79	4.77948
1094.07	4.68703
1094.35	4.57086
1094.64	4.45448
1094.92	4.35138
1095.21	4.23599
1095.49	4.14348
1095.77	4.066
1096.06	4.00805
1096.34	3.96597
1096.63	3.97278
1096.91	3.93571
1097.19	3.90972
1097.48	3.90932
1097.76	3.90612
1098.04	3.89371
1098.33	3.8642
1098.61	3.80845
1098.9	3.73628
1099.18	3.69751
1099.46	3.65004
1099.75	3.61216
1100.03	3.59026
1100.31	3.53452
1100.6	3.49765
1100.88	3.4784
1101.16	3.49747
1101.45	3.51937
1101.73	3.55776
1102.01	3.6034
1102.3	3.63725
1102.58	3.63618
1102.86	3.64725
1103.15	3.70831
1103.43	3.79481
1103.72	3.90728
1104	4.0231
1104.28	4.13385
1104.56	4.25621
1104.85	4.44235
1105.13	4.59447
1105.42	4.75309
1105.7	4.90097
1105.98	5.06551
1106.26	5.24647
1106.55	5.43332
1106.83	5.66497
1107.11	5.86529
1107.4	6.04766
1107.68	6.23913
1107.96	6.46144
1108.25	6.63356
1108.53	6.76973
1108.81	6.87537
1109.1	6.97791
1109.38	7.0707
1109.66	7.14022
1109.94	7.18506
1110.23	7.21234
1110.51	7.20439
1110.79	7.15645
1111.08	7.06163
1111.36	6.93505
1111.64	6.74548
1111.92	6.50418
1112.21	6.24302
1112.49	6.09192
1112.77	5.89516
1113.06	5.75652
1113.34	5.66406
1113.62	5.58193
1113.9	5.51752
1114.19	5.51628
1114.47	5.53223
1114.75	5.60752
1115.03	5.67208
1115.32	5.74578
1115.6	5.79459
1115.88	5.84199
1116.16	5.87837
1116.45	5.90771
1116.73	5.87744
1117.01	5.85348
1117.29	5.85927
1117.58	5.90752
1117.86	5.98625
1118.14	6.08115
1118.42	6.20952
1118.71	6.38629
1118.99	6.61876
1119.27	6.90729
1119.55	7.22895
1119.83	7.51488
1120.12	7.80639
1120.4	8.13161
1120.68	8.47904
1120.96	8.88369
1121.25	9.3356
1121.53	9.82752
1121.81	10.364
1122.09	10.9602
1122.38	11.5986
1122.66	12.3067
1122.94	13.0043
1123.22	13.7589
1123.5	14.7239
1123.79	15.8129
1124.07	17.1128
1124.35	18.3123
1124.63	19.571
1124.91	20.8238
1125.19	22.3089
1125.48	23.9045
1125.76	25.5596
1126.04	27.1833
1126.32	29.0562
1126.6	30.9199
1126.89	32.818
1127.17	34.5034
1127.45	36.0264
1127.73	37.2867
1128.01	38.224
1128.29	38.5555
1128.58	38.5164
1128.86	38.2455
1129.14	37.5004
1129.42	36.3403
1129.7	34.7764
1129.98	33.6011
1130.26	31.8481
1130.55	30.1318
1130.83	28.3388
1131.11	26.4414
1131.39	24.4732
1131.67	22.4891
1131.95	20.9987
1132.23	19.4866
1132.52	18.0538
1132.8	16.7239
1133.08	15.6047
1133.36	14.4563
1133.64	13.4426
1133.92	12.5379
1134.2	11.7713
1134.49	11.1698
1134.77	10.6913
1135.05	10.2562
1135.33	9.8309
1135.61	9.45218
1135.89	9.11848
1136.17	8.82862
1136.45	8.59602
1136.74	8.40857
1137.02	8.19968
1137.3	7.92349
1137.58	7.67786
1137.86	7.35747
1138.14	7.03181
1138.42	6.77393
1138.7	6.51186
1138.98	6.26637
1139.26	6.04274
1139.54	5.74833
1139.83	5.45923
1140.11	5.1685
1140.39	4.83429
1140.67	4.58085
1140.95	4.27778
1141.23	4.0065
1141.51	3.79271
1141.79	3.60997
1142.07	3.44185
1142.35	3.30924
1142.63	3.23806
1142.91	3.1324
1143.19	3.03475
1143.47	2.91141
1143.76	2.75782
1144.04	2.61857
1144.32	2.52681
1144.6	2.50259
1144.88	2.43149
1145.16	2.37411
1145.44	2.33995
1145.72	2.33356
1146	2.36494
1146.28	2.4258
1146.56	2.53234
1146.84	2.63233
1147.12	2.78178
1147.4	2.99751
1147.68	3.22321
1147.96	3.45779
1148.24	3.64477
1148.52	3.79489
1148.8	3.92594
1149.08	4.09981
1149.36	4.27417
1149.64	4.48957
1149.92	4.63938
1150.2	4.87737
1150.48	5.10662
1150.76	5.39592
1151.04	5.67611
1151.32	5.95144
1151.6	6.19232
1151.88	6.37829
1152.17	6.56385
1152.44	6.76437
1152.72	6.89944
1153	6.9962
1153.29	7.01504
1153.56	7.03993
1153.84	7.04968
1154.12	7.01856
1154.4	6.92488
1154.68	6.90314
1154.96	6.90777
1155.24	6.90341
1155.52	6.8961
1155.8	6.84094
1156.08	6.78434
1156.36	6.72049
1156.64	6.67235
1156.92	6.63394
1157.2	6.59357
1157.48	6.54071
1157.76	6.48665
1158.04	6.44716
1158.32	6.38034
1158.6	6.30335
1158.88	6.16964
1159.16	6.10923
1159.44	6.09492
1159.72	6.09298
1160	6.11596
1160.28	6.17672
1160.56	6.24251
1160.83	6.35875
1161.11	6.5274
1161.39	6.6425
1161.67	6.76779
1161.95	6.90231
1162.23	7.04368
1162.51	7.16622
1162.79	7.26562
1163.07	7.36819
1163.35	7.486
1163.63	7.60977
1163.91	7.73365
1164.19	7.87912
1164.47	8.02792
1164.74	8.19073
1165.02	8.37137
1165.3	8.59159
1165.58	8.84857
1165.86	9.1219
1166.14	9.40883
1166.42	9.72507
1166.7	10.0268
1166.98	10.3721
1167.26	10.7432
1167.54	11.1375
1167.81	11.5385
1168.09	11.9431
1168.37	12.319
1168.65	12.6164
1168.93	12.8287
1169.21	12.919
1169.49	12.9112
1169.77	12.8267
1170.04	12.6699
1170.32	12.4767
1170.6	12.2551
1170.88	11.9089
1171.16	11.3385
1171.44	10.8247
1171.72	10.3691
1172	9.96425
1172.28	9.55716
1172.55	9.15361
1172.83	8.7432
1173.11	8.22815
1173.39	7.81814
1173.67	7.43523
1173.95	7.07183
1174.22	6.76119
1174.5	6.48657
1174.78	6.23652
1175.06	5.984
1175.34	5.74791
1175.62	5.56848
1175.9	5.39663
1176.17	5.23023
1176.45	5.0799
1176.73	4.97297
1177.01	4.88904
1177.29	4.83396
1177.56	4.82795
1177.84	4.84922
1178.12	4.89308
1178.4	4.91884
1178.68	4.91495
1178.96	4.91252
1179.23	4.91458
1179.51	4.92453
1179.79	4.94036
1180.07	4.99542
1180.35	5.07177
1180.62	5.17705
1180.9	5.31949
1181.18	5.47509
1181.46	5.65726
1181.74	5.85981
1182.01	6.08681
1182.29	6.2928
1182.57	6.50069
1182.85	6.71691
1183.13	6.92934
1183.4	7.11089
1183.68	7.30265
1183.96	7.46542
1184.24	7.59811
1184.52	7.71087
1184.79	7.77481
1185.07	7.8011
1185.35	7.80309
1185.63	7.77094
1185.9	7.69502
1186.18	7.54779
1186.46	7.35651
1186.74	7.16493
1187.01	6.96418
1187.29	6.72163
1187.57	6.46412
1187.85	6.16948
1188.12	5.82783
1188.4	5.46169
1188.68	5.08939
1188.96	4.67616
1189.23	4.24816
1189.51	3.89156
1189.79	3.57598
1190.07	3.29039
1190.34	2.99993
1190.62	2.72047
1190.9	2.39071
1191.18	2.08033
1191.45	1.78426
1191.73	1.54129
1192.01	1.33136
1192.28	1.16608
1192.56	0.949374
1192.84	0.758371
1193.12	0.58121
1193.39	0.428037
1193.67	0.278588
1193.95	0.150281
1194.22	0.0587157
1194.5	-0.00722605
1194.78	-0.0554686
1195.05	-0.0839982
1195.33	-0.0970382
1195.61	-0.0782723
1195.89	-0.0234733
1196.16	0.0513119
1196.44	0.156451
1196.72	0.21021
1196.99	0.220759
1197.27	0.252347
1197.55	0.339825
1197.82	0.432005
1198.1	0.530424
1198.38	0.608399
1198.66	0.650755
1198.93	0.734207
1199.21	0.814942
1199.49	0.944787
1199.76	1.10781
1200.04	1.22778
1200.31	1.35774
1200.59	1.49854
1200.87	1.63299
1201.14	1.76726
1201.42	1.90493
1201.7	2.01729
1201.97	2.09185
1202.25	2.09321
1202.53	2.04033
1202.8	1.95082
1203.08	1.85913
1203.36	1.76523
1203.63	1.65843
1203.91	1.54615
1204.19	1.38614
1204.46	1.25996
1204.74	1.15232
1205.02	1.03824
1205.29	0.92415
1205.57	0.844202
1205.84	0.798817
1206.12	0.762043
1206.4	0.730506
1206.67	0.732251
1206.95	0.708995
1207.23	0.673736
1207.5	0.628252
1207.78	0.590526
1208.05	0.585727
1208.33	0.575389
1208.61	0.549498
1208.88	0.508028
1209.16	0.473516
1209.43	0.456965
1209.71	0.476682
1209.99	0.506504
1210.26	0.583744
1210.54	0.693471
1210.81	0.801268
1211.09	0.913171
1211.37	0.967412
1211.64	1.05964
1211.92	1.13714
1212.19	1.1883
1212.47	1.24219
1212.74	1.29493
1213.02	1.36522
1213.3	1.43087
1213.57	1.52628
1213.85	1.59816
1214.12	1.68879
1214.4	1.77275
1214.67	1.89213
1214.95	2.00129
1215.23	2.14865
1215.5	2.3255
1215.78	2.53265
1216.05	2.76809
1216.33	3.02059
1216.6	3.26569
1216.88	3.54458
1217.16	3.84795
1217.43	4.1852
1217.71	4.55246
1217.98	4.98355
1218.26	5.43964
1218.53	5.92839
1218.81	6.44039
1219.08	6.9592
1219.36	7.4841
1219.63	8.00942
1219.91	8.57148
1220.18	9.15284
1220.46	9.6943
1220.73	10.2492
1221.01	10.7991
1221.28	11.3438
1221.56	11.8749
1221.84	12.3437
1222.11	12.8605
1222.39	13.3428
1222.66	13.7676
1222.94	14.1146
1223.21	14.3825
1223.49	14.581
1223.76	14.7239
1224.04	14.8015
1224.31	14.8058
1224.59	14.7403
1224.86	14.6065
1225.14	14.3895
1225.41	14.1067
1225.69	13.7639
1225.96	13.3441
1226.23	12.8875
1226.51	12.4046
1226.78	11.9109
1227.06	11.4125
1227.33	10.8982
1227.61	10.4197
1227.88	9.95911
1228.16	9.50075
1228.43	9.06725
1228.71	8.6609
1228.98	8.29678
1229.26	7.99208
1229.53	7.74096
1229.81	7.55838
1230.08	7.42374
1230.36	7.31648
1230.63	7.18154
1230.9	7.05028
1231.18	6.91345
1231.45	6.86598
1231.73	6.85141
1232	6.86925
1232.28	6.89285
1232.55	6.91784
1232.83	6.90499
1233.1	6.87712
1233.37	6.85167
1233.65	6.83465
1233.92	6.7837
1234.2	6.82811
1234.47	6.86606
1234.75	6.94184
1235.02	7.00614
1235.29	7.09464
1235.57	7.23019
1235.84	7.41153
1236.12	7.6037
1236.39	7.75477
1236.66	7.9105
1236.94	8.07555
1237.21	8.22482
1237.49	8.4004
1237.76	8.62355
1238.03	8.85258
1238.31	9.03185
1238.58	9.17483
1238.86	9.35754
1239.13	9.60821
1239.4	9.89849
1239.68	10.1843
1239.95	10.5272
1240.23	10.8268
1240.5	11.0891
1240.77	11.2958
1241.05	11.5316
1241.32	11.7834
1241.6	12.0484
1241.87	12.3505
1242.14	12.6512
1242.42	12.9997
1242.69	13.3493
1242.96	13.6577
1243.24	13.9835
1243.51	14.3012
1243.78	14.6049
1244.06	14.865
1244.33	15.2035
1244.61	15.5701
1244.88	15.9819
1245.15	16.3805
1245.43	16.7643
1245.7	17.0578
1245.97	17.3884
1246.25	17.7832
1246.52	18.1318
1246.79	18.4166
1247.07	18.7719
1247.34	19.1129
1247.61	19.4384
1247.89	19.67
1248.16	19.8601
1248.43	20.0142
1248.71	20.1686
1248.98	20.3567
1249.25	20.7071
1249.53	20.9242
1249.8	21.1514
1250.07	21.3954
1250.35	21.6383
1250.62	21.8395
1250.89	22.0392
1251.17	22.2375
1251.44	22.4366
1251.71	22.6616
1251.98	22.8441
1252.26	23.0595
1252.53	23.2833
1252.8	23.4749
1253.08	23.5943
1253.35	23.7147
1253.62	23.8009
1253.89	23.8935
1254.17	23.9526
1254.44	23.9435
1254.71	23.9485
1254.99	23.9364
1255.26	23.9323
1255.53	23.9187
1255.8	23.8212
1256.08	23.7412
1256.35	23.7249
1256.62	23.6627
1256.9	23.6242
1257.17	23.7788
1257.44	23.7646
1257.71	23.7047
1257.99	23.8099
1258.26	24.006
1258.53	23.9933
1258.8	24.0029
1259.08	24.0429
1259.35	24.0676
1259.62	24.047
1259.89	24.0172
1260.17	24.038
1260.44	24.0376
1260.71	23.9483
1260.98	23.8897
1261.26	23.812
1261.53	23.7552
1261.8	23.7547
1262.07	23.8119
1262.34	23.8333
1262.62	23.8358
1262.89	23.8772
1263.16	23.8476
1263.44	23.989
1263.71	24.0287
1263.98	24.0727
1264.25	24.1047
1264.52	24.1071
1264.8	24.0867
1265.07	23.9196
1265.34	23.7211
1265.61	23.5784
1265.88	23.4668
1266.16	23.3424
1266.43	23.2244
1266.7	23.1397
1266.97	23.0724
1267.24	22.9963
1267.52	22.9072
1267.79	22.757
1268.06	22.6108
1268.33	22.4632
1268.6	22.3755
1268.88	22.2964
1269.15	22.2013
1269.42	22.1258
1269.69	22.0629
1269.96	21.9558
1270.23	21.8595
1270.51	21.7457
1270.78	21.6406
1271.05	21.5872
1271.32	21.5146
1271.59	21.4734
1271.86	21.4346
1272.14	21.4053
1272.41	21.3824
1272.68	21.3454
1272.95	21.2792
1273.22	21.2301
1273.49	21.2369
1273.77	21.2801
1274.04	21.3817
1274.31	21.4398
1274.58	21.5321
1274.85	21.5574
1275.12	21.6177
1275.39	21.6903
1275.67	21.7878
1275.94	21.9238
1276.21	22.0104
1276.48	22.3237
1276.75	22.5406
1277.02	22.7445
1277.29	22.9701
1277.56	23.2144
1277.84	23.4327
1278.11	23.6641
1278.38	23.9137
1278.65	24.1505
1278.92	24.3667
1279.19	24.5746
1279.46	24.7244
1279.73	24.8481
1280	25.0167
1280.28	25.1796
1280.55	25.3072
1280.82	25.4071
1281.09	25.4726
1281.36	25.5246
1281.63	25.5524
1281.9	25.5789
1282.17	25.5871
1282.44	25.5654
1282.71	25.5317
1282.99	25.4553
1283.26	25.3775
1283.53	25.2818
1283.8	25.1502
1284.07	25.0266
1284.34	24.9349
1284.61	24.8632
1284.88	24.7969
1285.15	24.6916
1285.42	24.5951
1285.69	24.5052
1285.96	24.4251
1286.23	24.3649
1286.5	24.3425
1286.77	24.3545
1287.05	24.3888
1287.32	24.4392
1287.59	24.5509
1287.86	24.6689
1288.13	24.8322
1288.4	25.0807
1288.67	25.3742
1288.94	25.7181
1289.21	26.1216
1289.48	26.6513
1289.75	27.3564
1290.02	28.1661
1290.29	29.1703
1290.56	30.4731
1290.83	32.0079
1291.1	33.9669
1291.37	36.3731
1291.64	39.1217
1291.91	42.4347
1292.18	46.4013
1292.45	50.8911
1292.72	56.0334
1292.99	61.8398
1293.26	68.1816
1293.53	74.7545
1293.8	81.061
1294.07	86.7754
1294.34	91.3777
1294.61	93.7784
1294.88	95.1562
1295.15	94.5482
1295.21	94.307
1295.49	90.5793
1295.76	85.3712
1296.04	79.4452
1296.31	72.3674
1296.58	66.3652
1296.86	61.0121
1297.13	56.8121
1297.41	53.2417
1297.68	51.1309
1297.95	48.5343
1298.23	46.2034
1298.5	44.1803
1298.78	42.1834
1299.05	40.3903
1299.33	38.7909
1299.6	37.3742
1299.87	36.0866
1300.15	34.9955
1300.42	33.9596
1300.7	32.9068
1300.97	31.9155
1301.24	30.7803
1301.52	29.7413
1301.79	28.7871
1302.07	27.9038
1302.34	27.1685
1302.61	26.4181
1302.89	25.7518
1303.16	25.1327
1303.43	24.6257
1303.71	24.1417
1303.98	23.7371
1304.26	23.3983
1304.53	22.9894
1304.8	22.5497
1305.08	22.1151
1305.35	21.663
1305.62	21.2209
1305.9	20.7674
1306.17	20.2934
1306.44	19.7705
1306.72	19.2332
1306.99	18.7611
1307.26	18.3457
1307.54	17.905
1307.81	17.3497
1308.09	16.8643
1308.36	16.5041
1308.63	16.1939
1308.91	15.8676
1309.18	15.5569
1309.45	15.2271
1309.73	14.8572
1310	14.5222
1310.27	14.2497
1310.55	14.0151
1310.82	13.9097
1311.09	13.6773
1311.37	13.4346
1311.64	13.1848
1311.91	12.9602
1312.19	12.7452
1312.46	12.5108
1312.73	12.2692
1313.01	12.0391
1313.28	11.7993
1313.55	11.5695
1313.82	11.3488
1314.1	11.0966
1314.37	10.8152
1314.64	10.5197
1314.92	10.2283
1315.19	9.97763
1315.46	9.70478
1315.74	9.4486
1316.01	9.34094
1316.28	9.08745
1316.55	8.80583
1316.83	8.52187
1317.1	8.3113
1317.37	8.11649
1317.65	7.96107
1317.92	7.8365
1318.19	7.69668
1318.46	7.55574
1318.74	7.34866
1319.01	7.1702
1319.28	7.00199
1319.55	6.8115
1319.83	6.63182
1320.1	6.49159
1320.37	6.34
1320.64	6.13428
1320.92	5.90054
1321.19	5.65112
1321.46	5.44035
1321.74	5.1968
1322.01	5.00602
1322.28	4.7766
1322.55	4.81646
1322.82	4.69972
1323.1	4.69647
1323.37	4.89014
1323.64	5.56305
1323.91	7.5973
1324.19	16.2571
1324.46	34.3131
1324.73	45.2027
1325	46.4928
1325.28	33.0179
1325.55	9.41601
1325.82	4.82324
1326.09	3.64501
1326.36	3.80465
1326.64	3.55124
1326.91	3.49043
1327.18	3.34249
1327.45	3.21471
1327.73	3.029
1328	3.0565
1328.27	3.06151
1328.54	2.96805
1328.81	2.94966
1329.09	2.90355
1329.36	2.85311
1329.63	2.79606
1329.9	2.72782
1330.17	2.63844
1330.45	2.54376
1330.72	2.43553
1330.99	2.32388
1331.26	2.20189
1331.53	2.0595
1331.8	1.90477
1332.08	1.78623
1332.35	1.7001
1332.62	1.65228
1332.89	1.66405
1333.16	1.64928
1333.44	1.70944
1333.71	1.71111
1333.98	1.72649
1334.25	1.75402
1334.52	1.72232
1334.79	1.89497
1335.07	1.97679
1335.34	2.09222
1335.61	2.17409
1335.88	2.23404
1336.15	2.32323
1336.42	2.48368
1336.7	2.59954
1336.97	2.75301
1337.24	2.90292
1337.51	3.07
1337.78	3.21974
1338.05	3.41225
1338.32	3.64022
1338.6	3.85948
1338.87	3.97442
1339.14	3.75457
1339.41	4.69396
1339.68	4.97201
1339.95	5.27201
1340.22	5.55015
1340.49	5.92455
1340.77	6.2454
1341.04	6.54527
1341.31	6.80472
1341.58	7.01764
1341.85	7.1642
1342.12	7.24132
1342.39	7.25957
1342.66	7.21922
1342.93	7.12263
1343.21	6.96445
1343.48	6.79202
1343.75	6.58933
1344.02	6.37987
1344.29	6.17276
1344.56	5.95014
1344.83	5.73569
1345.1	5.44161
1345.37	5.1376
1345.64	4.85512
1345.92	4.57505
1346.19	4.32007
1346.46	4.06336
1346.73	3.8096
1347	3.56022
1347.27	3.28914
1347.54	3.02869
1347.81	2.77489
1348.08	2.53877
1348.35	2.29935
1348.62	2.12115
1348.89	1.97599
1349.16	1.81882
1349.43	1.65831
1349.71	1.55204
1349.98	1.43971
1350.25	1.35438
1350.52	1.27874
1350.79	1.22486
1351.06	1.19716
1351.33	1.18832
1351.6	1.21775
1351.87	1.23125
1352.14	1.24782
1352.41	1.19924
1352.68	1.22711
1352.95	1.21371
1353.22	1.22122
1353.49	1.2362
1353.76	1.26076
1354.03	1.28436
1354.3	1.25268
1354.57	1.32445
1354.84	1.43646
1355.11	1.53064
1355.38	1.57898
1355.65	1.6335
1355.92	1.53823
1356.19	1.6348
1356.46	1.74266
1356.73	1.81079
1357	1.8045
1357.28	1.72139
1357.55	1.64676
1357.82	1.52144
1358.09	1.44586
1358.36	1.34702
1358.63	1.24584
1358.9	1.23718
1359.17	1.20508
1359.44	1.19196
1359.71	1.21031
1359.98	1.23663
1360.24	1.2809
1360.51	1.34852
1360.78	1.41815
1361.05	1.49902
1361.32	1.56333
1361.59	1.64531
1361.86	1.72166
1362.13	1.76909
1362.4	1.80938
1362.67	1.82277
1362.94	1.89295
1363.21	1.99422
1363.48	2.12036
1363.75	2.27515
1364.02	2.45145
1364.29	2.65188
1364.56	2.84975
1364.83	2.99116
1365.1	3.09866
1365.37	3.16503
1365.64	3.26108
1365.91	3.38383
1366.18	3.52297
1366.45	3.65853
1366.72	3.77823
1366.99	3.93261
1367.25	4.09844
1367.52	4.27283
1367.79	4.43353
1368.06	4.57803
1368.33	4.71336
1368.6	4.80374
1368.87	4.84815
1369.14	4.8868
1369.41	4.93825
1369.68	4.95524
1369.95	4.96431
1370.22	4.96067
1370.49	4.93299
1370.76	4.89141
1371.02	4.84592
1371.29	4.84805
1371.56	4.82967
1371.83	4.81984
1372.1	4.80906
1372.37	4.77641
1372.64	4.74117
1372.91	4.72012
1373.18	4.70786
1373.45	4.72799
1373.72	4.77647
1373.98	4.85475
1374.25	4.9371
1374.52	5.03915
1374.79	5.1529
1375.06	5.27641
1375.33	5.42179
1375.6	5.58174
1375.87	5.78408
1376.13	6.01585
1376.4	6.25938
1376.67	6.53412
1376.94	6.7354
1377.21	7.03733
1377.48	7.36528
1377.75	7.6841
1378.02	8.04451
1378.28	8.41902
1378.55	8.79837
1378.82	9.2095
1379.09	9.65158
1379.36	10.0959
1379.63	10.5437
1379.9	11.0015
1380.17	11.4926
1380.43	12
1380.7	12.5023
1380.97	13.0735
1381.24	13.6278
1381.51	14.1747
1381.77	14.7358
1382.04	15.3464
1382.31	15.9972
1382.58	16.7355
1382.85	17.4088
1383.12	18.1151
1383.39	18.8225
1383.65	19.5109
1383.92	20.1839
1384.19	20.8074
1384.46	21.3764
1384.73	21.9206
1384.99	22.3733
1385.26	22.7219
1385.53	22.9937
1385.8	23.2021
1386.07	23.3266
1386.34	23.3568
1386.6	23.2856
1386.87	23.1096
1387.14	22.9045
1387.41	22.4786
1387.68	22.0363
1387.94	21.5158
1388.21	20.9002
1388.48	20.2123
1388.75	19.5395
1389.01	18.8673
1389.28	18.1891
1389.55	17.5125
1389.82	16.821
1390.09	16.178
1390.35	15.6
1390.62	15.0811
1390.89	14.5986
1391.16	14.122
1391.43	13.6419
1391.69	13.1889
1391.96	12.7795
1392.23	12.3811
1392.5	12.0182
1392.76	11.6737
1393.03	11.3431
1393.3	11.0346
1393.57	10.7186
1393.83	10.3927
1394.1	10.1291
1394.37	9.88764
1394.64	9.67864
1394.9	9.52895
1395.17	9.37408
1395.44	9.20285
1395.71	9.07707
1395.97	8.96751
1396.24	8.86382
1396.51	8.76491
1396.78	8.7113
1397.04	8.70037
1397.31	8.68729
1397.58	8.6636
1397.84	8.6364
1398.11	8.58872
1398.38	8.51215
1398.65	8.45901
1398.91	8.41757
1399.18	8.39686
1399.45	8.39086
1399.72	8.41792
1399.98	8.4389
1400.25	8.4796
1400.52	8.51838
1400.78	8.5722
1401.05	8.68429
1401.32	8.8441
1401.59	9.02566
1401.85	9.22633
1402.12	9.46435
1402.39	9.77088
1402.65	10.0325
1402.92	10.2779
1403.19	10.5656
1403.45	10.8532
1403.72	11.1637
1403.99	11.4915
1404.25	11.8317
1404.52	12.1689
1404.79	12.5058
1405.06	12.7228
1405.32	12.9362
1405.59	13.1887
1405.86	13.5835
1406.12	13.8657
1406.39	14.1255
1406.66	14.357
1406.92	14.5619
1407.19	14.7608
1407.46	14.9405
1407.72	15.1132
1407.99	15.3203
1408.26	15.5428
1408.52	15.7665
1408.79	15.9934
1409.05	16.2214
1409.32	16.4452
1409.59	16.6056
1409.85	16.7606
1410.12	16.9034
1410.39	17.01
1410.65	17.0722
1410.92	17.1512
1411.19	17.2334
1411.45	17.2924
1411.72	17.4846
1411.98	17.8451
1412.25	18.2213
1412.52	18.7019
1412.78	19.3047
1413.05	19.8717
1413.32	20.4398
1413.58	21.0161
1413.85	21.6872
1414.12	22.4501
1414.38	23.2118
1414.65	23.9783
1414.91	24.5965
1415.18	25.142
1415.45	25.5671
1415.71	25.8978
1415.98	26.0738
1416.24	26.073
1416.51	25.9871
1416.78	25.6877
1417.04	25.1186
1417.31	24.4172
1417.57	23.8151
1417.84	23.0198
1418.1	22.2093
1418.37	21.3689
1418.64	20.5288
1418.9	19.7125
1419.17	18.9284
1419.43	18.2227
1419.7	17.5348
1419.97	16.9728
1420.23	16.455
1420.5	15.9737
1420.76	15.6049
1421.03	15.2399
1421.29	14.892
1421.56	14.5731
1421.83	14.349
1422.09	14.1476
1422.36	13.9363
1422.62	13.7485
1422.89	13.5721
1423.15	13.3927
1423.42	13.3115
1423.68	13.2886
1423.95	13.3035
1424.22	13.3578
1424.48	13.4234
1424.75	13.5125
1425.01	13.7051
1425.28	13.9564
1425.54	14.1878
1425.81	14.4186
1426.07	14.6656
1426.34	14.9795
1426.6	15.3138
1426.87	15.7069
1427.13	16.1547
1427.4	16.6362
1427.67	17.1524
1427.93	17.6567
1428.19	18.198
1428.46	18.7562
1428.73	19.3328
1428.99	19.9345
1429.26	20.5702
1429.52	21.279
1429.79	22.0424
1430.05	22.8367
1430.32	23.6538
1430.58	24.4459
1430.85	25.2032
1431.11	25.9818
1431.38	26.8128
1431.64	27.7163
1431.91	28.6168
1432.17	29.5536
1432.44	30.5599
1432.7	31.5777
1432.97	32.5693
1433.23	33.527
1433.5	34.4923
1433.76	35.4798
1434.03	36.5086
1434.29	37.5896
1434.55	38.6458
1434.82	39.7057
1435.08	40.7887
1435.35	41.876
1435.61	42.9878
1435.88	44.1092
1436.14	45.2432
1436.41	46.3487
1436.67	47.4462
1436.94	48.5837
1437.2	49.7037
1437.47	50.7886
1437.73	51.7846
1437.99	52.6542
1438.26	53.3876
1438.52	53.9773
1438.79	54.4094
1439.05	54.702
1439.32	54.8731
1439.58	54.891
1439.85	54.6542
1440.11	54.293
1440.37	53.7418
1440.64	52.9619
1440.9	52.1026
1441.17	51.192
1441.43	50.3178
1441.69	49.4018
1441.96	48.5545
1442.22	47.7085
1442.49	46.8955
1442.75	46.0058
1443.02	45.1971
1443.28	44.3774
1443.54	43.5457
1443.81	42.7227
1444.07	41.9791
1444.34	41.3704
1444.6	40.9594
1444.86	40.6408
1445.13	40.3506
1445.39	40.0806
1445.66	39.8119
1445.92	39.563
1446.18	39.3482
1446.45	39.1222
1446.71	38.9367
1446.98	38.7735
1447.24	38.648
1447.5	38.5188
1447.77	38.3803
1448.03	38.2968
1448.3	38.2158
1448.56	38.0941
1448.82	37.9751
1449.09	37.8971
1449.35	37.8253
1449.61	37.7134
1449.88	37.6243
1450.14	37.4532
1450.41	37.509
1450.67	37.4715
1450.93	37.4
1451.2	37.1966
1451.46	36.9988
1451.72	36.7426
1451.99	36.5073
1452.25	36.3185
1452.51	36.1115
1452.78	35.9661
1453.04	35.882
1453.3	36.0708
1453.57	36.1071
1453.83	36.1057
1454.09	36.1212
1454.36	36.1315
1454.62	36.1155
1454.88	36.0604
1455.15	36.0067
1455.41	35.9604
1455.67	35.9308
1455.94	35.9102
1456.2	35.8905
1456.46	35.8297
1456.73	35.716
1456.99	35.5689
1457.25	35.4619
1457.52	35.371
1457.78	35.2633
1458.04	35.1208
1458.31	34.9996
1458.57	34.8591
1458.83	34.6902
1459.09	34.5457
1459.36	34.4188
1459.62	34.331
1459.88	34.2556
1460.15	34.1432
1460.41	34.0355
1460.67	33.9103
1460.94	33.7902
1461.2	33.6239
1461.46	33.4167
1461.72	33.1626
1461.99	32.9573
1462.25	32.7583
1462.51	32.5199
1462.78	32.2782
1463.04	32.0019
1463.3	31.6752
1463.56	31.3235
1463.83	31.0141
1464.09	30.7003
1464.35	30.4471
1464.61	30.1391
1464.88	29.8258
1465.14	29.4305
1465.4	28.9516
1465.67	28.4988
1465.93	28.261
1466.19	27.8359
1466.45	27.469
1466.72	27.0959
1466.98	26.6959
1467.24	26.3273
1467.5	25.9089
1467.77	25.4548
1468.03	24.9702
1468.29	24.5063
1468.55	24.0165
1468.81	23.5773
1469.08	23.095
1469.34	22.5995
1469.6	22.1076
1469.86	21.6307
1470.13	21.161
1470.39	20.7097
1470.65	20.2824
1470.91	19.8397
1471.17	19.3834
1471.44	18.9303
1471.7	18.481
1471.96	18.1166
1472.22	17.7435
1472.49	17.4051
1472.75	17.0428
1473.01	16.6867
1473.27	16.3241
1473.53	16.0164
1473.8	15.7058
1474.06	15.4361
1474.32	15.1522
1474.58	14.854
1474.84	14.5934
1475.11	14.3386
1475.37	14.1062
1475.63	13.8965
1475.89	13.7382
1476.15	13.5859
1476.42	13.4454
1476.68	13.3131
1476.94	13.1531
1477.2	12.9993
1477.46	12.9293
1477.72	12.8496
1477.99	12.7343
1478.25	12.6521
1478.51	12.6633
1478.77	12.7616
1479.03	12.9072
1479.29	13.1226
1479.55	13.423
1479.82	13.7943
1480.08	14.2023
1480.34	14.6272
1480.6	15.0832
1480.86	15.5719
1481.12	16.0975
1481.39	16.5925
1481.65	17.0911
1481.91	17.5309
1482.17	17.8836
1482.43	18.1773
1482.69	18.3792
1482.95	18.4652
1483.22	18.3711
1483.48	18.1598
1483.74	17.8347
1484	17.4144
1484.26	16.8887
1484.52	16.2625
1484.78	15.5971
1485.04	14.8483
1485.31	14.0622
1485.57	13.2463
1485.83	12.4101
1486.09	11.601
1486.35	10.8247
1486.61	10.0612
1486.87	9.21928
1487.13	8.34251
1487.4	7.76361
1487.66	7.19725
1487.92	6.71958
1488.18	6.18207
1488.44	5.70811
1488.7	5.30754
1488.96	4.93839
1489.22	4.65991
1489.48	4.45016
1489.74	4.28058
1490.01	4.14125
1490.27	4.00705
1490.53	3.86852
1490.79	3.72698
1491.05	3.55871
1491.31	3.40857
1491.57	3.2477
1491.83	3.08238
1492.09	2.90741
1492.35	2.78464
1492.61	2.65585
1492.87	2.54604
1493.13	2.48236
1493.4	2.41942
1493.65	2.37083
1493.92	2.34248
1494.18	2.31147
1494.44	2.28571
1494.7	2.26157
1494.96	2.24752
1495.22	2.23747
1495.48	2.20008
1495.74	2.14852
1496	2.07633
1496.26	1.98666
1496.52	1.89612
1496.78	1.81919
1497.04	1.75245
1497.3	1.69593
1497.56	1.64121
1497.82	1.60516
1498.08	1.55862
1498.34	1.5227
1498.6	1.4574
1498.86	1.38784
1499.12	1.33416
1499.38	1.26858
1499.64	1.20391
1499.9	1.1484
1500.17	1.10847
1500.42	1.0631
1500.68	1.03903
1500.95	1.025
1501.21	1.00456
1501.46	1.00629
1501.73	0.986546
1501.99	0.956734
1502.24	0.921441
1502.51	0.89757
1502.77	0.889674
1503.03	0.901238
1503.29	0.990343
1503.55	1.02488
1503.8	1.03695
1504.06	1.02963
1504.33	0.983216
1504.58	0.917442
1504.84	0.85547
1505.1	0.798432
1505.36	0.724974
1505.62	0.637705
1505.88	0.563627
1506.14	0.515052
1506.4	0.484941
1506.66	0.47771
1506.92	0.497768
1507.18	0.497167
1507.44	0.473076
1507.7	0.442893
1507.96	0.411345
1508.22	0.416448
1508.48	0.417275
1508.74	0.42494
1509	0.434041
1509.26	0.439075
1509.52	0.463117
1509.78	0.493988
1510.04	0.520024
1510.3	0.512886
1510.56	0.511662
1510.82	0.492847
1511.08	0.481084
1511.33	0.441691
1511.59	0.324467
1511.85	0.154507
1512.11	0.376876
1512.37	0.390242
1512.63	0.3738
1512.89	0.347428
1513.15	0.350058
1513.41	0.350401
1513.67	0.316193
1513.93	0.29253
1514.19	0.310072
1514.45	0.34291
1514.7	0.385055
1514.96	0.397778
1515.22	0.408124
1515.48	0.425383
1515.74	0.416256
1516	0.423607
1516.26	0.445619
1516.52	0.44858
1516.78	0.455302
1517.04	0.435508
1517.3	0.408401
1517.55	0.407148
1517.81	0.411985
1518.07	0.410689
1518.33	0.406269
1518.59	0.357372
1518.85	0.270976
1519.11	0.196398
1519.37	0.154764
1519.63	0.155815
1519.88	0.160002
1520.14	0.166637
1520.4	0.165509
1520.66	0.190624
1520.92	0.222953
1521.18	0.288667
1521.44	0.349536
1521.69	0.37699
1521.95	0.364063
1522.21	0.357208
1522.47	0.389666
1522.73	0.421668
1522.99	0.452276
1523.25	0.46308
1523.5	0.450902
1523.76	0.429125
1524.02	0.391465
1524.28	0.364711
1524.54	0.348901
1524.8	0.368281
1525.06	0.406147
1525.31	0.429525
1525.57	0.444856
1525.83	0.456358
1526.09	0.477125
1526.35	0.498752
1526.61	0.515855
1526.86	0.512069
1527.12	0.491177
1527.38	0.480988
1527.64	0.412875
1527.9	0.320986
1528.16	0.222855
1528.41	0.124301
1528.67	0.084833
1528.93	0.0557491
1529.19	0.0317279
1529.45	0.00212733
1529.7	-0.00505425
1529.96	0.0112449
1530.22	0.0298368
1530.48	0.0337749
1530.74	0.0416457
1530.99	0.0544675
1531.25	0.0528917
1531.51	0.0425081
1531.77	0.0802764
1532.03	0.0905486
1532.28	0.0347169
1532.54	-0.0136234
1532.8	-0.0329244
1533.06	-0.029873
1533.32	-0.0342371
1533.57	-0.044784
1533.83	-0.0594906
1534.09	-0.0730851
1534.35	-0.0777312
1534.6	-0.0731648
1534.86	-0.0536056
1535.12	-0.0501009
1535.38	-0.0623013
1535.63	-0.0598046
1535.89	-0.0496327
1536.15	-0.0211271
1536.41	0.0177644
1536.67	0.0586538
1536.92	0.0988243
1537.18	0.120681
1537.44	0.125486
1537.7	0.126453
1537.95	0.0951432
1538.21	0.0487493
1538.47	0.013223
1538.73	-0.0152427
1538.98	-0.0382433
1539.24	-0.04662
1539.5	-0.0394522
1539.76	0.0142192
1540.01	0.0246875
1540.27	0.026457
1540.53	0.0414457
1540.63	0.0469818
1540.89	0.0593634
1541.15	0.0723863
1541.41	0.110941
1541.67	0.156906
1541.93	0.203903
1542.2	0.207133
1542.46	0.206863
1542.72	0.191429
1542.98	0.245102
1543.24	0.2796
1543.5	0.304749
1543.76	0.317442
1544.02	0.334894
1544.29	0.347506
1544.55	0.393136
1544.81	0.422271
1545.07	0.449884
1545.33	0.482103
1545.59	0.512033
1545.85	0.516627
1546.11	0.501351
1546.38	0.495452
1546.64	0.491626
1546.9	0.50738
1547.16	0.545244
1547.42	0.606497
1547.68	0.676377
1547.94	0.731354
1548.2	0.80809
1548.47	0.897307
1548.73	0.942507
1548.99	0.937774
1549.25	0.923243
1549.51	0.878482
1549.77	0.832764
1550.03	0.802434
1550.29	0.7826
1550.55	0.791524
1550.81	0.826233
1551.08	0.89266
1551.34	0.977639
1551.6	1.05292
1551.86	1.06956
1552.12	1.07512
1552.38	1.11816
1552.64	1.16995
1552.9	1.22891
1553.16	1.30062
1553.42	1.39776
1553.68	1.501
1553.94	1.60258
1554.2	1.70017
1554.46	1.84363
1554.73	1.9308
1554.99	1.97781
1555.25	1.99356
1555.51	1.99583
1555.77	1.95617
1556.03	1.91992
1556.29	1.87474
1556.55	1.83649
1556.81	1.77653
1557.07	1.73615
1557.33	1.70153
1557.59	1.72213
1557.85	1.74009
1558.11	1.74552
1558.37	1.74757
1558.63	1.74519
1558.89	1.73776
1559.15	1.75626
1559.41	1.76824
1559.67	1.77478
1559.93	1.78199
1560.19	1.79029
1560.46	1.80689
1560.72	1.83357
1560.98	1.84859
1561.24	1.84085
1561.5	1.82228
1561.76	1.79275
1562.02	1.78033
1562.28	1.7555
1562.54	1.7237
1562.8	1.75434
1563.06	1.79012
1563.32	1.82897
1563.58	1.85942
1563.84	1.89849
1564.1	1.93846
1564.36	1.9518
1564.62	1.97521
1564.88	2.04003
1565.14	2.07395
1565.4	2.08498
1565.66	2.0925
1565.92	2.09821
1566.18	2.12556
1566.44	2.13431
1566.7	2.11871
1566.96	2.138
1567.22	2.13932
1567.48	2.16104
1567.74	2.21986
1567.99	2.31583
1568.25	2.46692
1568.51	2.51608
1568.77	2.62681
1569.03	2.65397
1569.29	2.76694
1569.55	2.92827
1569.81	2.97495
1570.07	3.02436
1570.33	3.0875
1570.59	3.13538
1570.85	3.17066
1571.11	3.18904
1571.37	3.2638
1571.63	3.34453
1571.89	3.43386
1572.15	3.50913
1572.41	3.67951
1572.67	3.61538
1572.93	3.65714
1573.19	3.75238
1573.45	3.85165
1573.71	3.98596
1573.96	4.14123
1574.22	4.33267
1574.48	4.52834
1574.74	4.73175
1575	5.01135
1575.26	5.22198
1575.52	5.40866
1575.78	5.60622
1576.04	5.8481
1576.3	6.13126
1576.56	6.44032
1576.81	6.77062
1577.07	7.14065
1577.33	7.5509
1577.59	8.00508
1577.85	8.4251
1578.11	8.86408
1578.37	9.27734
1578.63	9.62186
1578.89	9.96901
1579.15	10.2755
1579.41	10.5678
1579.66	10.8247
1579.92	11.0142
1580.18	11.1753
1580.44	11.2678
1580.7	11.3339
1580.96	11.3963
1581.22	11.4495
1581.48	11.4237
1581.74	11.411
1581.99	11.4022
1582.25	11.3905
1582.51	11.3916
1582.77	11.3895
1583.03	11.4153
1583.29	11.49
1583.55	11.5437
1583.8	11.6151
1584.06	11.6952
1584.32	11.7258
1584.58	11.7456
1584.84	11.7455
1585.1	11.7239
1585.36	11.7026
1585.61	11.6704
1585.87	11.6341
1586.13	11.5867
1586.39	11.5427
1586.65	11.4889
1586.91	11.4362
1587.17	11.4005
1587.42	11.3485
1587.68	11.2904
1587.94	11.2798
1588.2	11.3091
1588.46	11.369
1588.72	11.4551
1588.97	11.5705
1589.23	11.6866
1589.49	11.8294
1589.75	11.9914
1590.01	12.1936
1590.27	12.3748
1590.52	12.546
1590.78	12.7452
1591.04	12.95
1591.3	13.1872
1591.56	13.4716
1591.81	13.7971
1592.07	14.1661
1592.33	14.5512
1592.59	14.9453
1592.85	15.3667
1593.11	15.7912
1593.36	16.2494
1593.62	16.7077
1593.88	17.1853
1594.14	17.6588
1594.4	18.1088
1594.65	18.5412
1594.91	19.0322
1595.17	19.5715
1595.43	20.1249
1595.68	20.7092
1595.94	21.2553
1596.2	21.8227
1596.46	22.4503
1596.72	23.2185
1596.97	24.0277
1597.23	24.8714
1597.49	25.714
1597.75	26.5776
1598	27.4557
1598.26	28.3489
1598.52	29.2976
1598.78	30.2767
1599.03	31.2417
1599.29	32.2206
1599.55	33.2107
1599.81	34.2109
1600.06	35.2248
1600.32	36.3117
1600.58	37.4519
1600.84	38.6249
1601.09	39.8082
1601.35	40.9789
1601.61	42.1648
1601.87	43.3114
1602.12	44.4072
1602.38	45.4935
1602.64	46.5855
1602.9	47.6546
1603.15	48.7296
1603.41	49.7415
1603.67	50.6715
1603.93	51.5675
1604.18	52.2885
1604.44	53.0541
1604.7	53.807
1604.95	54.4007
1605.21	54.8471
1605.47	55.2078
1605.73	55.4156
1605.98	55.5606
1606.24	55.6034
1606.5	55.5489
1606.76	55.4302
1607.01	55.2589
1607.27	55.015
1607.53	54.6807
1607.78	54.2314
1608.04	53.7122
1608.3	52.9849
1608.55	52.1268
1608.81	51.1734
1609.07	50.076
1609.32	48.8909
1609.58	47.6396
1609.84	46.3149
1610.09	44.9523
1610.35	43.5502
1610.61	42.1471
1610.87	40.7745
1611.12	39.4545
1611.38	38.1514
1611.64	36.9076
1611.89	35.7251
1612.15	34.5695
1612.41	33.4963
1612.66	32.4933
1612.92	31.5906
1613.18	30.7164
1613.43	29.9107
1613.69	29.1573
1613.95	28.4577
1614.2	27.832
1614.46	27.2846
1614.72	26.7617
1614.97	26.2822
1615.23	25.8483
1615.49	25.4348
1615.74	25.0378
1616	24.6494
1616.25	24.1901
1616.51	23.9335
1616.77	23.7198
1617.02	23.528
1617.28	23.3791
1617.54	23.2503
1617.79	23.1628
1618.05	23.0752
1618.31	23.0214
1618.56	22.9428
1618.82	22.8784
1619.07	22.8233
1619.33	22.8067
1619.59	22.7974
1619.84	22.7934
1620.1	22.8197
1620.35	22.8749
1620.61	22.9539
1620.87	23.0162
1621.12	23.0542
1621.38	23.0928
1621.64	23.1235
1621.89	23.1625
1622.15	23.1751
1622.4	23.193
1622.66	23.3477
1622.92	23.5543
1623.17	23.7954
1623.43	24.095
1623.68	24.3916
1623.94	24.6629
1624.19	24.9897
1624.45	25.3145
1624.71	25.6262
1624.96	26.0051
1625.22	26.374
1625.47	26.797
1625.73	27.226
1625.99	27.629
1626.24	28.0323
1626.5	28.4834
1626.75	28.958
1627.01	29.4682
1627.26	30.0131
1627.52	30.6696
1627.78	31.3096
1628.03	31.9586
1628.29	32.637
1628.54	33.3089
1628.8	34.0579
1629.05	34.8555
1629.31	35.712
1629.56	36.7593
1629.82	37.744
1630.08	38.8674
1630.33	40.118
1630.59	41.846
1630.84	43.3732
1631.1	44.9336
1631.35	46.5395
1631.61	48.2789
1631.86	50.1355
1632.12	52.0505
1632.37	54.0254
1632.63	55.9877
1632.88	57.8902
1633.14	59.7272
1633.39	61.4674
1633.65	63.0755
1633.91	64.5644
1634.16	65.8889
1634.42	67.0713
1634.67	68.1124
1634.93	68.9926
1635.18	69.6003
1635.44	70.0664
1635.69	70.2718
1635.95	70.2816
1636.2	70.0671
1636.46	69.6563
1636.71	69.0182
1636.97	68.1477
1637.22	67.0837
1637.48	65.8175
1637.73	64.4313
1637.99	62.9885
1638.24	61.5258
1638.5	59.9753
1638.75	58.3563
1639.01	56.7359
1639.26	55.0635
1639.52	53.3794
1639.77	51.7245
1640.03	50.1252
1640.28	48.5883
1640.53	47.1056
1640.79	45.6761
1641.04	44.4898
1641.3	43.3114
1641.55	42.2575
1641.81	41.3648
1642.06	40.5415
1642.32	39.7494
1642.57	39.0545
1642.83	38.4683
1643.08	37.8951
1643.34	37.3871
1643.59	36.981
1643.85	36.5943
1644.1	36.2734
1644.35	35.9714
1644.61	35.779
1644.86	35.6431
1645.12	35.5788
1645.37	35.5724
1645.63	35.5751
1645.88	35.5885
1646.14	35.6168
1646.39	35.703
1646.64	35.8239
1646.9	35.9788
1647.15	36.1611
1647.41	36.384
1647.66	36.6059
1647.91	36.8391
1648.17	37.0609
1648.42	37.2626
1648.68	37.4639
1648.93	37.7211
1649.19	37.9852
1649.44	38.1862
1649.69	38.3652
1649.95	38.5831
1650.2	38.7893
1650.46	39.0243
1650.71	39.3567
1650.97	39.5908
1651.22	39.7702
1651.47	40.1187
1651.73	40.4139
1651.98	40.8275
1652.24	41.1459
1652.49	41.5657
1652.74	41.8907
1653	42.1517
1653.25	42.3811
1653.5	42.6024
1653.76	42.7864
1654.01	42.9802
1654.27	43.1778
1654.52	43.3476
1654.77	43.4043
1655.03	43.6021
1655.28	43.9644
1655.53	44.2284
1655.79	44.1656
1656.04	44.3761
1656.3	44.5079
1656.55	44.8972
1656.8	45.0826
1657.06	45.2002
1657.31	45.2912
1657.56	45.3554
1657.82	45.4128
1658.07	45.4562
1658.32	45.4629
1658.58	45.4819
1658.83	45.5164
1659.09	45.583
1659.34	45.6766
1659.59	45.728
1659.84	45.7787
1660.1	45.8101
1660.35	45.8309
1660.61	45.8044
1660.86	45.7707
1661.11	45.7532
1661.37	45.6965
1661.62	45.6331
1661.87	45.5631
1662.12	45.4063
1662.38	45.18
1662.63	44.9164
1662.89	44.5947
1663.14	44.2904
1663.39	43.9846
1663.64	43.6461
1663.9	43.3355
1664.15	42.9838
1664.4	42.6031
1664.66	42.2001
1664.91	41.7807
1665.16	41.3419
1665.42	40.8831
1665.67	40.4197
1665.92	39.9664
1666.18	39.5195
1666.43	39.0488
1666.68	38.6133
1666.93	38.1195
1667.19	37.5826
1667.44	37.0457
1667.69	36.5234
1667.94	36.0037
1668.2	35.4937
1668.45	34.9811
1668.7	34.5257
1668.96	33.9496
1669.21	33.3688
1669.46	32.8003
1669.72	32.2131
1669.97	31.6489
1670.22	31.0829
1670.47	30.5208
1670.73	29.9915
1670.98	29.4604
1671.23	28.9035
1671.48	28.3868
1671.74	27.884
1671.99	27.3708
1672.24	26.8692
1672.49	26.4097
1672.75	25.9513
1673	25.5278
1673.25	25.1124
1673.5	24.6965
1673.76	24.3229
1674.01	23.9112
1674.26	23.4912
1674.51	23.023
1674.77	22.5219
1675.02	22.0948
1675.27	21.7304
1675.52	21.4313
1675.78	21.1909
1676.03	20.9735
1676.28	20.7212
1676.53	20.458
1676.79	20.2988
1677.04	20.0218
1677.29	19.7563
1677.54	19.5502
1677.79	19.3266
1678.05	19.1071
1678.3	18.8651
1678.55	18.6816
1678.8	18.5189
1679.05	18.4276
1679.31	18.456
1679.56	18.5465
1679.81	18.7605
1680.06	19.0799
1680.31	19.545
1680.57	20.5717
1680.82	21.9387
1681.07	23.578
1681.32	24.5686
1681.57	24.3807
1681.83	22.9623
1682.08	20.3982
1682.33	19.0287
1682.58	18.2626
1682.83	18.1076
1683.08	18.2537
1683.34	18.4291
1683.59	18.6013
1683.84	18.7587
1684.09	18.8435
1684.34	19.0018
1684.6	19.0157
1684.85	19.0506
1685.1	19.1751
1685.35	19.717
1685.6	20.0487
1685.85	20.3778
1686.11	20.7355
1686.36	21.0878
1686.61	21.4198
1686.86	21.7187
1687.11	22.0937
1687.36	22.5236
1687.61	23.03
1687.87	23.5594
1688.12	24.1339
1688.37	24.7522
1688.62	25.4057
1688.87	26.094
1689.12	26.8533
1689.38	27.6439
1689.63	28.4542
1689.88	29.3128
1690.13	30.2434
1690.38	31.259
1690.63	32.3042
1690.88	33.537
1691.13	34.7149
1691.39	35.919
1691.64	37.1663
1691.89	38.4451
1692.14	39.8147
1692.39	41.301
1692.64	42.8574
1692.89	44.4779
1693.14	46.188
1693.39	47.9774
1693.65	49.8879
1693.9	51.9252
1694.15	54.0711
1694.4	56.2962
1694.65	58.579
1694.9	60.9307
1695.15	63.3379
1695.4	65.738
1695.65	68.0919
1695.91	70.4146
1696.16	72.6539
1696.41	74.8887
1696.66	77.0808
1696.91	79.2128
1697.16	81.2637
1697.41	83.2006
1697.66	84.9841
1697.91	86.6779
1698.16	88.1831
1698.41	89.4972
1698.66	90.603
1698.91	91.4535
1699.17	92.0909
1699.42	92.4052
1699.67	92.5138
1699.92	92.3956
1700.17	91.9987
1700.42	91.3769
1700.67	90.5543
1700.92	89.4157
1701.17	87.9638
1701.42	86.2816
1701.67	84.3602
1701.92	82.2135
1702.17	79.7672
1702.42	77.1998
1702.67	74.6092
1702.92	72.1362
1703.17	69.6707
1703.42	67.2243
1703.67	64.8311
1703.93	62.488
1704.18	60.2977
1704.43	58.1917
1704.68	56.1445
1704.93	54.1778
1705.18	52.3125
1705.43	50.5111
1705.68	48.8081
1705.93	47.2096
1706.18	45.6729
1706.43	44.2858
1706.68	43.0557
1706.93	41.7929
1707.18	40.56
1707.43	39.3931
1707.68	38.2903
1707.93	37.2953
1708.18	36.3638
1708.43	35.4691
1708.68	34.6566
1708.93	33.8995
1709.18	33.1912
1709.43	32.5372
1709.68	31.9207
1709.93	31.3425
1710.18	30.7767
1710.43	30.2906
1710.68	29.8347
1710.93	29.3996
1711.18	28.9782
1711.43	28.5665
1711.68	28.2011
1711.93	27.8654
1712.18	27.558
1712.43	27.2828
1712.68	27.0239
1712.93	26.7857
1713.18	26.6667
1713.43	26.637
1713.68	26.6152
1713.93	26.5389
1714.18	26.5026
1714.43	26.4614
1714.67	26.4432
1714.92	26.4384
1715.17	26.3914
1715.42	26.3817
1715.67	26.378
1715.92	26.418
1716.17	26.5233
1716.42	26.6491
1716.67	26.8256
1716.92	27.0174
1717.17	27.2627
1717.42	27.5255
1717.67	27.8195
1717.92	28.1624
1718.17	28.507
1718.42	28.8539
1718.67	29.1675
1718.92	29.4325
1719.17	29.6966
1719.41	29.9007
1719.66	30.1483
1719.91	30.4458
1720.16	30.7564
1720.41	31.0927
1720.66	31.4429
1720.91	31.8096
1721.16	32.1831
1721.41	32.5687
1721.66	32.9235
1721.91	33.1913
1722.15	33.4712
1722.4	33.7575
1722.65	34.086
1722.9	34.4184
1723.15	34.7539
1723.4	35.0848
1723.65	35.3339
1723.9	35.5456
1724.15	35.7609
1724.4	35.959
1724.64	36.1363
1724.89	36.3238
1725.14	36.4578
1725.39	36.5933
1725.64	36.7029
1725.89	36.8149
1726.14	36.9439
1726.39	36.9903
1726.64	36.9868
1726.88	36.9628
1727.13	36.884
1727.38	36.8015
1727.63	36.7266
1727.88	36.6689
1728.13	36.6087
1728.38	36.581
1728.63	36.5561
1728.87	36.5012
1729.12	36.4635
1729.37	36.3561
1729.62	36.2445
1729.87	36.109
1730.12	35.9088
1730.36	35.6976
1730.61	35.5252
1730.86	35.3792
1731.11	35.2309
1731.36	35.0556
1731.61	34.8711
1731.86	34.6773
1732.11	34.4677
1732.35	34.2507
1732.6	34.0539
1732.85	33.8371
1733.1	33.5577
1733.35	33.2659
1733.59	32.9615
1733.84	32.614
1734.09	32.3057
1734.34	32.0508
1734.59	31.8396
1734.84	31.6542
1735.08	31.4886
1735.33	31.309
1735.58	31.1365
1735.83	30.9607
1736.08	30.7364
1736.32	30.4836
1736.57	30.2371
1736.82	29.9786
1737.07	29.6865
1737.32	29.4308
1737.56	29.198
1737.81	28.9713
1738.06	28.7116
1738.31	28.4416
1738.56	28.1705
1738.8	27.633
1739.05	27.3815
1739.3	27.2483
1739.55	27.1747
1739.8	26.9246
1740.04	26.7194
1740.29	26.5167
1740.54	26.3557
1740.79	26.1704
1741.04	25.9759
1741.28	25.7966
1741.53	25.6204
1741.78	25.4262
1742.03	25.213
1742.27	24.9973
1742.52	24.7831
1742.77	24.5481
1743.02	24.2962
1743.27	24.0342
1743.51	23.7927
1743.76	23.5586
1744.01	23.3606
1744.26	23.1909
1744.5	23.0343
1744.75	22.893
1745	22.7629
1745.24	22.6497
1745.49	22.5045
1745.74	22.372
1745.99	22.231
1746.23	22.1081
1746.48	22.0093
1746.73	21.979
1746.98	21.964
1747.22	21.998
1747.47	22.0415
1747.72	22.1276
1747.97	22.2003
1748.21	22.3
1748.46	22.3879
1748.71	22.5479
1748.95	22.7356
1749.2	22.9985
1749.45	23.307
1749.7	23.6272
1749.94	24.031
1750.19	24.4383
1750.44	24.8975
1750.69	25.3914
1750.93	25.9606
1751.18	26.5958
1751.43	27.2665
1751.67	27.9902
1751.92	28.7505
1752.17	29.5821
1752.41	30.4645
1752.66	31.3592
1752.91	32.2792
1753.16	33.2067
1753.4	34.1866
1753.65	35.2003
1753.9	36.3055
1754.14	37.4784
1754.39	38.6916
1754.64	39.9397
1754.88	41.2095
1755.13	42.5042
1755.38	43.7983
1755.62	45.0285
1755.87	46.2424
1756.12	47.3325
1756.36	48.3457
1756.61	49.3238
1756.86	50.2371
1757.1	51.0436
1757.35	51.7419
1757.6	52.3284
1757.84	52.8388
1758.09	53.2066
1758.34	53.3819
1758.58	53.4009
1758.83	53.2699
1759.08	53.0273
1759.32	52.7218
1759.57	52.3365
1759.82	51.8475
1760.06	51.2678
1760.31	50.6109
1760.55	49.8331
1760.8	49.0915
1761.05	48.2824
1761.29	47.4766
1761.54	46.6492
1761.79	45.8299
1762.03	45.0005
1762.28	44.1716
1762.53	43.3433
1762.77	42.572
1763.02	41.8788
1763.26	41.2678
1763.51	40.7028
1763.76	40.1849
1764	39.6371
1764.25	39.2667
1764.5	39.2968
1764.74	39.1073
1764.99	38.9757
1765.23	39.0572
1765.48	39.2201
1765.73	39.5214
1765.97	39.8895
1766.22	40.3234
1766.46	40.8846
1766.71	41.5231
1766.96	42.2088
1767.2	42.8589
1767.45	43.5444
1767.69	44.2617
1767.94	44.8814
1768.19	45.475
1768.43	46.0435
1768.68	46.5358
1768.92	46.9581
1769.17	47.3056
1769.41	47.5408
1769.66	47.6484
1769.91	47.615
1770.15	47.4154
1770.4	47.1155
1770.64	46.6859
1770.89	46.1136
1771.14	45.3765
1771.38	44.5052
1771.63	43.517
1771.87	42.3957
1772.12	41.2002
1772.36	39.8985
1772.61	38.4966
1772.85	37.0302
1773.1	35.543
1773.34	34.0158
1773.59	32.4807
1773.84	31.0271
1774.08	29.5896
1774.33	28.1807
1774.57	26.8262
1774.82	25.5397
1774.98	24.7577
1775.23	23.5497
1775.48	22.4146
1775.73	21.4283
1775.98	20.4685
1776.23	19.5263
1776.48	18.7264
1776.73	17.9653
1776.98	17.2558
1777.22	16.6108
1777.47	16.0287
1777.72	15.4136
1777.97	14.7447
1778.22	14.0879
1778.47	13.4655
1778.72	12.8919
1778.97	12.2608
1779.22	11.7104
1779.47	11.212
1779.72	10.7484
1779.97	10.3095
1780.22	9.8919
1780.47	9.46672
1780.72	9.0944
1780.96	8.79833
1781.21	8.58792
1781.46	8.38811
1781.71	8.1504
1781.96	7.89917
1782.21	7.68247
1782.46	7.51448
1782.71	7.35863
1782.96	7.20241
1783.21	7.01897
1783.46	6.8633
1783.71	6.73194
1783.95	6.5974
1784.2	6.55465
1784.45	6.44092
1784.7	6.31501
1784.95	6.1912
1785.2	6.05984
1785.45	5.9256
1785.7	5.79409
1785.95	5.65526
1786.19	5.50071
1786.44	5.34285
1786.69	5.17305
1786.94	4.96452
1787.19	4.76111
1787.44	4.56674
1787.69	4.43171
1787.94	4.27177
1788.19	4.12266
1788.43	4.14976
1788.68	4.36345
1788.93	4.23813
1789.18	4.06443
1789.43	4.05392
1789.68	4.05295
1789.93	3.98962
1790.17	3.94337
1790.42	3.91594
1790.67	3.89054
1790.92	3.84388
1791.17	3.80666
1791.42	3.72806
1791.67	3.63977
1791.91	3.55711
1792.16	3.44304
1792.41	3.28623
1792.66	3.14027
1792.91	3.03205
1793.16	2.96147
1793.4	2.90561
1793.65	2.87508
1793.9	2.85605
1794.15	2.83259
1794.4	2.82556
1794.65	2.88843
1794.89	2.83294
1795.14	2.70245
1795.39	2.58409
1795.64	2.46924
1795.89	2.37725
1796.14	2.29587
1796.38	2.22776
1796.63	2.19344
1796.88	2.16564
1797.13	2.14718
1797.38	2.15527
1797.62	2.17777
1797.87	2.19519
1798.12	2.17201
1798.37	2.11877
1798.62	2.04298
1798.86	2.02222
1799.11	1.99274
1799.36	1.98752
1799.61	2.01277
1799.86	2.00264
1800.1	1.95027
1800.35	1.894
1800.6	1.89332
1800.85	1.91753
1801.1	1.96659
1801.34	2.00426
1801.59	2.03842
1801.84	2.00488
1802.09	1.89298
1802.33	1.71924
1802.58	1.60349
1802.83	1.5262
1803.08	1.44916
1803.33	1.43483
1803.57	1.46669
1803.82	1.47766
1804.07	1.49228
1804.32	1.50946
1804.56	1.49041
1804.81	1.56144
1805.06	1.5993
1805.31	1.62941
1805.55	1.67505
1805.8	1.73469
1806.05	1.78313
1806.3	1.70314
1806.54	1.68405
1806.79	1.66143
1807.04	1.62502
1807.29	1.54128
1807.53	1.44153
1807.78	1.35856
1808.03	1.30088
1808.27	1.24998
1808.52	1.21839
1808.77	1.19651
1809.02	1.19683
1809.26	1.1414
1809.51	1.04966
1809.76	1.06295
1810.01	1.07192
1810.25	1.06686
1810.5	1.07464
1810.75	1.21968
1810.99	1.1705
1811.24	1.14099
1811.49	1.09947
1811.74	1.04301
1811.98	0.9352
1812.23	0.79575
1812.48	0.665129
1812.72	0.552565
1812.97	0.478613
1813.22	0.467274
1813.47	0.516886
1813.71	0.551117
1813.96	0.556127
1814.21	0.618333
1814.45	0.656407
1814.7	0.692208
1814.95	0.698665
1815.19	0.753097
1815.44	0.820372
1815.69	0.86779
1815.93	0.854086
1816.18	0.823988
1816.43	0.799204
1816.68	0.763983
1816.92	0.735899
1817.17	0.726723
1817.42	0.725632
1817.66	0.735911
1817.91	0.724354
1818.16	0.713942
1818.4	0.704029
1818.65	0.693998
1818.9	0.683121
1819.14	0.676788
1819.39	0.637406
1819.64	0.611037
1819.88	0.589422
1820.13	0.566789
1820.38	0.544642
1820.62	0.469324
1820.87	0.409755
1821.11	0.397648
1821.36	0.414088
1821.61	0.467104
1821.85	0.52025
1822.1	0.563577
1822.35	0.593045
1822.59	0.611888
1822.84	0.613961
1823.09	0.640435
1823.33	0.599618
1823.58	0.580635
1823.83	0.564449
1824.07	0.616131
1824.32	0.660452
1824.56	0.670573
1824.81	0.632145
1825.06	0.590235
1825.3	0.546278
1825.55	0.489704
1825.79	0.452679
1826.04	0.47711
1826.29	0.500125
1826.53	0.517098
1826.78	0.465171
1827.02	0.396914
1827.27	0.333737
1827.52	0.261091
1827.76	0.193419
1828.01	0.119218
1828.25	0.0759909
1828.5	0.0342558
1828.75	0.0122213
1828.99	0.0135799
1829.24	0.0845565
1829.48	0.18412
1829.73	0.195623
1829.98	0.143446
1830.22	0.0238658
1830.47	-0.0965811
1830.71	-0.125656
1830.96	-0.101715
1831.21	-0.0734355
1831.45	0.00807459
1831.7	0.39386
1831.94	0.345649
1832.19	0.339292
1832.43	0.350279
1832.68	0.366255
1832.93	0.286835
1833.17	0.255137
1833.42	0.212772
1833.66	0.204345
1833.91	0.265264
1834.15	0.357063
1834.4	0.407605
1834.64	0.457327
1834.89	0.519975
1835.14	0.537102
1835.38	0.523676
1835.63	0.479593
1835.87	0.419989
1836.12	0.357484
1836.36	0.29006
1836.61	0.221976
1836.85	0.184161
1837.1	0.178029
1837.35	0.208474
1837.59	0.237437
1837.84	0.249204
1838.08	0.281076
1838.33	0.298946
1838.57	0.305997
1838.82	0.310629
1839.06	0.311767
1839.31	0.313119
1839.55	0.323469
1839.8	0.377094
1840.04	0.436643
1840.29	0.485387
1840.53	0.470651
1840.78	0.385738
1841.02	0.303299
1841.27	0.221696
1841.51	0.197596
1841.76	0.193241
1842	0.229296
1842.25	0.298322
1842.49	0.350511
1842.74	0.388735
1842.98	0.375139
1843.23	0.33804
1843.47	0.310999
1843.72	0.286778
1843.96	0.24531
1844.21	0.184535
1844.45	0.166349
1844.7	0.1475
1844.94	0.151401
1845.19	0.192281
1845.43	0.215543
1845.68	0.23545
1845.92	0.246353
1846.17	0.249862
1846.41	0.251003
1846.66	0.22273
1846.9	0.234351
1847.15	0.258306
1847.39	0.305031
1847.64	0.342887
1847.88	0.395813
1848.12	0.441669
1848.37	0.463994
1848.61	0.455522
1848.86	0.440472
1849.1	0.444735
1849.35	0.45704
1849.59	0.465598
1849.84	0.470538
1850.08	0.449052
1850.33	0.403469
1850.57	0.350015
1850.81	0.268851
1851.06	0.149351
1851.3	0.0773218
1851.55	0.0150909
1851.79	-0.0329998
1852.04	-0.0651341
1852.28	-0.0755362
1852.52	-0.0957042
1852.77	-0.136941
1853.01	-0.172452
1853.26	-0.208075
1853.5	-0.172589
1853.75	-0.123669
1853.99	-0.0380831
1854.23	0.0460103
1854.48	0.113684
1854.72	0.196511
1854.97	0.222128
1855.21	0.230251
1855.46	0.224142
1855.7	0.204062
1855.94	0.188262
1856.19	0.119019
1856.43	0.10074
1856.68	0.111979
1856.92	0.127255
1857.16	0.180521
1857.41	0.282333
1857.65	0.381297
1857.9	0.430146
1858.14	0.478875
1858.38	0.518951
1858.63	0.503864
1858.87	0.477953
1859.11	0.455366
1859.36	0.47049
1859.6	0.438303
1859.85	0.481066
1860.09	0.499002
1860.33	0.501838
1860.58	0.485959
1860.82	0.453252
1861.07	0.398148
1861.31	0.350179
1861.55	0.329403
1861.8	0.318667
1862.04	0.284861
1862.28	0.250491
1862.53	0.225377
1862.77	0.233523
1863.02	0.246217
1863.26	0.269605
1863.5	0.292995
1863.75	0.293016
1863.99	0.279599
1864.23	0.32847
1864.48	0.281713
1864.72	0.285589
1864.96	0.316869
1865.21	0.391953
1865.45	0.425533
1865.69	0.404645
1865.94	0.362216
1866.18	0.315623
1866.42	0.336664
1866.67	0.419544
1866.91	0.497338
1867.15	0.53297
1867.4	0.561574
1867.64	0.592392
1867.88	0.590993
1868.13	0.555508
1868.37	0.472134
1868.61	0.419686
1868.86	0.313542
1869.1	0.201814
1869.34	0.243258
1869.59	0.176991
1869.83	0.112728
1870.07	0.0736426
1870.32	0.0771079
1870.56	0.10734
1870.8	0.152728
1871.04	0.111736
1871.29	0.153686
1871.53	0.181432
1871.77	0.189229
1872.02	0.200553
1872.26	0.231931
1872.5	0.281132
1872.75	0.325719
1872.99	0.366669
1873.23	0.389277
1873.47	0.40714
1873.72	0.409366
1873.96	0.379375
1874.2	0.26353
1874.45	0.169983
1874.69	0.099369
1874.93	0.0592796
1875.17	0.0478713
1875.42	0.059464
1875.66	0.0666272
1875.9	0.0784857
1876.14	0.0601072
1876.39	0.0188723
1876.63	-0.029243
1876.87	-0.0486541
1877.12	-0.0807412
1877.36	-0.0853649
1877.6	-0.0623554
1877.84	-0.035797
1878.09	0.0174773
1878.33	0.0474699
1878.57	0.0756492
1878.81	0.0954605
1879.06	0.110049
1879.3	0.130248
1879.54	0.1395
1879.78	0.103456
1880.03	0.0819503
1880.27	0.0984804
1880.51	0.117909
1880.75	0.151334
1881	0.193111
1881.24	0.245166
1881.48	0.227647
1881.72	0.22032
1881.97	0.163916
1882.21	0.143213
1882.45	0.133592
1882.69	0.123804
1882.93	0.115388
1883.18	0.0871214
1883.42	0.01516
1883.66	-0.0376946
1883.9	-0.0596061
1884.14	-0.0869091
1884.39	-0.0996743
1884.63	-0.116486
1884.87	-0.100473
1885.11	-0.0677985
1885.36	-0.0512392
1885.6	-0.035543
1885.84	0.0369522
1886.08	0.153812
1886.32	0.207559
1886.57	0.192564
1886.81	0.148943
1887.05	0.114152
1887.29	0.0731197
1887.53	0.0462639
1887.77	0.0333132
1888.02	0.0115819
1888.26	-0.0117723
1888.5	-0.0320465
1888.74	-0.0675576
1888.98	-0.101438
1889.23	-0.102424
1889.47	-0.0702117
1889.71	-0.0720865
1889.95	-0.0545532
1890.19	-0.0462668
1890.43	-0.0307412
1890.68	-0.0430723
1890.92	-0.0408375
1891.16	-0.0381461
1891.4	-0.0311134
1891.64	0.0104831
1891.88	0.0909583
1892.13	0.197116
1892.37	0.313792
1892.61	0.389144
1892.85	0.408867
1893.09	0.412703
1893.33	0.4119
1893.58	0.390857
1893.82	0.382038
1894.06	0.4081
1894.3	0.378049
1894.54	0.29715
1894.78	0.224445
1895.02	0.174152
1895.27	0.205196
1895.51	0.165686
1895.75	0.169045
1895.99	0.15735
1896.23	0.140259
1896.47	0.142715
1896.71	0.0920028
1896.95	0.0767827
1897.2	0.0967299
1897.44	0.141375
1897.68	0.204546
1897.92	0.276562
1898.16	0.327527
1898.4	0.354447
1898.64	0.351809
1898.88	0.351199
1899.13	0.324493
1899.37	0.27334
1899.61	0.171494
1899.85	0.163163
1900.09	0.163516
1900.33	0.187225
1900.57	0.202956
1900.81	0.0942395
1901.05	-0.0179881
1901.3	-0.0784665
1901.54	-0.116316
1901.78	-0.0890222
1902.02	-0.0408722
1902.26	0.021927
1902.5	0.0317357
1902.74	0.0365762
1902.98	0.0448862
1903.22	0.0550873
1903.46	0.077409
1903.7	0.0969209
1903.94	0.12358
1904.19	0.166813
1904.43	0.168511
1904.67	0.252246
1904.91	0.289019
1905.15	0.343497
1905.39	0.356298
1905.63	0.367192
1905.87	0.380309
1906.11	0.396048
1906.35	0.414628
1906.59	0.446347
1906.83	0.4155
1907.07	0.401726
1907.31	0.35219
1907.55	0.437113
1907.79	0.419504
1908.03	0.369899
1908.28	0.305972
1908.52	0.243145
1908.76	0.18644
1909	0.140597
1909.24	0.0877771
1909.48	0.0452003
1909.72	0.0187215
1909.96	0.0173989
1910.2	0.0726741
1910.44	0.110459
1910.68	0.1636
1910.92	0.243561
1911.16	0.322748
1911.4	0.37542
1911.64	0.422263
1911.88	0.33971
1912.12	0.31039
1912.36	0.270084
1912.6	0.211328
1912.84	0.120266
1913.08	0.0478714
1913.32	-0.00234835
1913.56	-0.020671
1913.8	-0.00400381
1914.04	0.00765505
1914.28	0.0772265
1914.52	0.171139
1914.76	0.251361
1915	0.302445
1915.24	0.299497
1915.48	0.29789
1915.72	0.31443
1915.96	0.325199
1916.2	0.310966
1916.44	0.300293
1916.68	0.304055
1916.92	0.190006
1917.16	0.113237
1917.4	-0.0152701
1917.64	-0.013005
1917.88	0.0283017
1918.12	0.0973333
1918.36	0.152648
1918.6	0.184822
1918.84	0.222165
1919.08	0.260053
1919.32	0.296315
1919.56	0.298865
1919.8	0.180014
1920.04	0.104127
1920.28	0.0358805
1920.52	-0.0115027
1920.76	-0.0343516
1921	-0.0300465
1921.24	-0.00644832
1921.48	0.0446464
1921.72	0.109631
1921.96	0.186666
1922.2	0.210222
1922.43	0.201067
1922.67	0.199534
1922.91	0.191344
1923.15	0.225602
1923.39	0.243383
1923.63	0.270885
1923.87	0.298049
1924.11	0.323899
1924.35	0.339339
1924.59	0.353801
1924.83	0.372721
1925.07	0.388475
1925.31	0.390367
1925.55	0.383227
1925.79	0.373674
1926.03	0.366316
1926.26	0.354191
1926.5	0.317072
1926.74	0.281826
1926.98	0.232136
1927.22	0.183536
1927.46	0.119766
1927.7	0.0484688
1927.94	-0.0116745
1928.18	-0.0387452
1928.42	-0.0420096
1928.66	-0.0326947
1928.9	-0.00315396
1929.13	0.0296161
1929.37	0.0778637
1929.61	0.1481
1929.85	0.233819
1930.09	0.311035
1930.33	0.363773
1930.57	0.418307
1930.81	0.418939
1931.05	0.392729
1931.28	0.32829
1931.52	0.242537
1931.76	0.211801
1932	0.220642
1932.24	0.258538
1932.48	0.254699
1932.72	0.222171
1932.96	0.186864
1933.2	0.103671
1933.43	0.0382145
1933.67	-0.0130146
1933.91	-0.0323698
1934.15	0.0146886
1934.39	0.0549697
1934.63	0.0829404
1934.87	0.0683329
1935.1	0.0781774
1935.34	0.136326
1935.58	0.152542
1935.82	0.103632
1936.06	0.0489749
1936.3	0.0082561
1936.54	0.0035296
1936.77	-0.0851625
1937.01	-0.118872
1937.25	-0.144058
1937.49	-0.13146
1937.73	-0.1321
1937.97	-0.164722
1938.21	-0.153966
1938.44	-0.136062
1938.68	-0.125336
1938.92	-0.116216
1939.16	-0.0704036
1939.4	-0.00398198
1939.64	0.041628
1939.87	0.0865488
1940.11	0.122598
1940.35	0.148113
1940.59	0.175177
1940.83	0.198747
1941.06	0.220189
1941.3	0.2774
1941.54	0.292022
1941.78	0.282729
1942.02	0.265143
1942.26	0.261408
1942.49	0.267279
1942.73	0.27158
1942.97	0.294003
1943.21	0.285082
1943.45	0.279578
1943.68	0.281651
1943.92	0.300018
1944.16	0.279557
1944.4	0.234511
1944.64	0.197704
1944.87	0.165332
1945.11	0.153958
1945.35	0.156888
1945.59	0.176583
1945.83	0.218944
1946.06	0.283747
1946.3	0.325024
1946.54	0.360161
1946.78	0.408913
1947.02	0.460718
1947.25	0.593258
1947.49	0.639278
1947.73	0.661907
1947.97	0.637045
1948.2	0.671245
1948.44	0.66019
1948.68	0.662827
1948.92	0.568386
1949.15	0.487531
1949.39	0.460921
1949.63	0.447343
1949.87	0.430711
1950.11	0.411483
1950.34	0.399466
1950.58	0.384848
1950.82	0.388777
1951.06	0.445656
1951.29	0.47988
1951.53	0.518846
1951.77	0.557005
1952	0.58469
1952.24	0.556454
1952.48	0.500278
1952.72	0.434552
1952.95	0.368135
1953.19	0.319073
1953.43	0.266487
1953.67	0.21805
1953.9	0.17599
1954.14	0.167958
1954.38	0.179438
1954.62	0.180906
1954.85	0.171793
1955.09	0.123668
1955.33	0.146815
1955.56	0.193137
1955.8	0.235563
1956.04	0.271026
1956.28	0.318023
1956.51	0.360039
1956.75	0.406794
1956.99	0.450229
1957.22	0.481076
1957.46	0.501366
1957.7	0.494093
1957.94	0.497084
1958.17	0.526578
1958.41	0.545117
1958.65	0.533637
1958.88	0.520139
1959.12	0.508379
1959.36	0.473935
1959.59	0.458041
1959.83	0.426165
1960.07	0.367424
1960.3	0.325804
1960.54	0.342281
1960.78	0.431238
1961.02	0.470356
1961.25	0.572651
1961.49	0.55978
1961.73	0.504554
1961.96	0.46357
1962.2	0.428926
1962.44	0.383667
1962.67	0.330426
1962.91	0.277777
1963.15	0.307096
1963.38	0.339778
1963.62	0.343798
1963.86	0.337258
1964.09	0.156143
1964.33	0.329939
1964.57	0.392264
1964.8	0.464961
1965.04	0.517305
1965.28	0.532666
1965.51	0.53923
1965.75	0.527435
1965.99	0.497873
1966.22	0.465337
1966.46	0.437267
1966.69	0.409981
1966.93	0.361711
1967.17	0.306088
1967.4	0.229303
1967.64	0.188835
1967.88	0.144282
1968.11	0.0997354
1968.35	0.0321804
1968.59	-0.00526923
1968.82	0.0107038
1969.06	0.0596642
1969.29	0.137487
1969.53	0.195675
1969.77	0.227293
1970	0.254046
1970.24	0.278241
1970.48	0.299509
1970.71	0.264513
1970.95	0.217339
1971.18	0.178631
1971.42	0.139868
1971.66	0.123002
1971.89	0.12458
1972.13	0.137005
1972.36	0.153442
1972.6	0.121946
1972.84	0.116564
1973.07	0.0454965
1973.31	-0.00940755
1973.54	-0.0457378
1973.78	-0.0112688
1974.02	-0.0103855
1974.25	0.0219008
1974.49	0.0476617
1974.72	0.0844943
1974.96	0.129168
1975.2	0.127704
1975.43	0.108919
1975.67	0.119951
1975.9	0.148713
1976.14	0.14923
1976.37	0.121723
1976.61	0.0968616
1976.84	0.11085
1977.08	0.116192
1977.32	0.155541
1977.55	0.331247
1977.79	0.579666
1978.02	0.651386
1978.26	0.736198
1978.49	0.762222
1978.73	0.749611
1978.97	0.708748
1979.2	0.619427
1979.44	0.546744
1979.67	0.469858
1979.91	0.37511
1980.14	0.327777
1980.38	0.308875
1980.61	0.295168
1980.85	0.303446
1981.09	0.291472
1981.32	0.332861
1981.56	0.36002
1981.79	0.405858
1982.03	0.455964
1982.26	0.454921
1982.5	0.421295
1982.73	0.373428
1982.97	0.346884
1983.2	0.332776
1983.44	0.299413
1983.67	0.244188
1983.91	0.186209
1984.14	0.129904
1984.38	0.0830107
1984.61	0.000492163
1984.85	-0.00322115
1985.08	-0.0145751
1985.32	-0.0203138
1985.55	-0.0113824
1985.79	0.018806
1986.03	0.12905
1986.26	0.273418
1986.49	0.421755
1986.73	0.499063
1986.97	0.523319
1987.2	0.53539
1987.43	0.533932
1987.67	0.534402
1987.91	0.503883
1988.14	0.444849
1988.38	0.385452
1988.61	0.263347
1988.84	0.243896
1989.08	0.232603
1989.31	0.200828
1989.55	0.213154
1989.78	0.211139
1990.02	0.23114
1990.25	0.248302
1990.49	0.255108
1990.72	0.241613
1990.96	0.20903
1991.19	0.125302
1991.43	0.18243
1991.66	0.288244
1991.9	0.393704
1992.13	0.396244
1992.37	0.366113
1992.6	0.317731
1992.84	0.283374
1993.07	0.27133
1993.3	0.284425
1993.54	0.287419
1993.77	0.296697
1994.01	0.304047
1994.24	0.362638
1994.48	0.436261
1994.71	0.495267
1994.95	0.548466
1995.18	0.581325
1995.41	0.602937
1995.65	0.623466
1995.88	0.639555
1996.12	0.65419
1996.35	0.643295
1996.59	0.592328
1996.82	0.512278
1997.05	0.394056
1997.29	0.269584
1997.52	0.1407
1997.76	0.0171905
1997.99	-0.0994482
1998.23	-0.183603
1998.46	-0.276639
1998.69	-0.277026
1998.93	0.00147087
1999.16	0.193195
