Acq. time (s)=	10
Accumulations=	10
Range (cm-¹)=	0...1850
Windows=	7
Autofocus=	Off
AutoExposure=	Off
Spike filter=	Multiple accum.
Delay time (s)=	0
Binning=	1
Readout mode=	Signal
DeNoise=	Standard
ICS correction=	On
Dark correction=	Off
Inst. Process=	On
Instrument=	LabRAM S3000
Detector=	Synapse
Objective=	x100
Grating=	1800
ND Filter=	100%
Laser (nm)=	632.81 
Slit=	100.021
Hole=	1000.03
Microscope=	Principal
StageXY=	Märzhauser
StageZ=	Märzhauser
X (µm)=	-1134.8
Y (µm)=	21742.6
Z (µm)=	-5.1
Project=	
Sample=	
Site=	
Title=	SPIS_spectra
Remark=	
Date=	17.06.2019 10:53
Operator=	
Acquired=	17.06.2019 10:53:12
Base:Sub=	17.06.2019 10:58:06
1.09422	269.398
1.43862	265.73
1.78454	261.807
2.12892	257.421
2.4748	253.391
2.81915	249.98
3.16501	246.82
3.50932	243.88
3.85515	241.088
4.19944	238.412
4.54523	235.821
4.88949	233.244
5.23373	230.67
5.57948	228.104
5.92369	225.545
6.26941	223.019
6.61359	220.469
6.95928	217.902
7.30343	215.372
7.64757	212.876
7.99321	210.422
8.33732	207.999
8.68293	205.579
9.02701	203.206
9.37107	200.864
9.71664	198.513
10.0607	196.227
10.4047	193.981
10.7502	191.744
11.0942	189.543
11.4382	187.36
11.7836	185.19
12.1276	183.039
12.4715	180.902
12.8169	178.759
13.1608	176.632
13.5047	174.519
13.8501	172.411
14.194	170.32
14.5378	168.235
14.8816	166.163
15.227	164.098
15.5707	162.052
15.9145	160.029
16.2598	158.002
16.6035	156.006
16.9473	154.011
17.291	152.044
17.6362	150.087
17.9799	148.153
18.3236	146.234
18.6672	144.325
19.0109	142.424
19.356	140.525
19.6996	138.649
20.0432	136.795
20.3868	134.949
20.7304	133.108
21.0739	131.28
21.419	129.446
21.7625	127.629
22.106	125.836
22.4495	124.055
22.793	122.294
23.1364	120.548
23.4814	118.796
23.8248	117.061
24.1683	115.334
24.5117	113.621
24.8551	111.912
25.1984	110.216
25.5418	108.527
25.8851	106.854
26.2285	105.189
26.5718	103.541
26.9151	101.918
27.2599	100.294
27.6031	98.6978
27.9464	97.1022
28.2896	95.5192
28.6328	93.933
28.9761	92.3674
29.3192	90.8107
29.6624	89.2655
30.0056	87.7264
30.3487	86.199
30.6919	84.6828
31.035	83.1796
31.3781	81.6864
31.7212	80.1945
32.0642	78.7085
32.4073	77.2225
32.7504	75.7434
33.0934	74.2893
33.4364	72.858
33.7794	71.4372
34.1224	70.0233
34.4638	68.6299
34.8068	67.2382
35.1497	65.8593
35.4926	64.4805
35.8356	63.094
36.1784	61.7116
36.5213	60.3633
36.8642	59.0275
37.207	57.705
37.5499	56.3795
37.8912	55.0663
38.234	53.7528
38.5768	52.4441
38.9196	51.1471
39.2623	49.8531
39.6051	48.5747
39.9478	47.3044
40.289	46.0434
40.6317	44.7876
40.9744	43.5397
41.317	42.3052
41.6597	41.0775
42.0023	39.8633
42.3435	38.6598
42.6861	37.4623
43.0287	36.2797
43.3712	35.098
43.7123	33.9373
44.0548	32.7782
44.3974	31.6284
44.7399	30.4823
45.0809	29.3529
45.4234	28.2295
45.7659	27.1106
46.1083	26.003
46.4493	24.9148
46.7917	23.8338
47.1341	22.7627
47.4765	21.694
47.8174	20.633
48.1598	19.5815
48.5021	18.547
48.8429	17.5163
49.1853	16.4993
49.5276	15.4914
49.8684	14.4992
50.2107	13.5132
50.5529	12.5434
50.8937	11.5837
51.2359	10.6233
51.5781	9.68482
51.9188	8.7696
52.261	7.86138
52.6017	6.97183
52.9439	6.08866
53.286	5.25915
53.6266	4.48309
53.9688	3.73924
54.3093	2.99123
54.6514	2.27983
54.9935	1.61978
55.3341	1.03121
55.6761	0.552198
56.0166	0.207873
56.3586	-0.0367445
56.6991	-0.171595
57.0411	-0.18653
57.3816	-0.0652964
57.7235	0.170602
58.064	0.530735
58.4059	0.989182
58.7463	1.56735
59.0882	2.24167
59.4286	2.95596
59.7704	3.70677
60.1108	4.51663
60.4526	5.31545
60.7929	6.26824
61.1347	7.17935
61.475	8.16267
61.8168	9.21966
62.1571	10.2906
62.4988	11.2597
62.839	12.2661
63.1792	13.2604
63.5209	14.2153
63.8611	15.1666
64.2028	16.1352
64.5429	17.0747
64.8831	18.0868
65.2247	19.0266
65.5648	19.8001
65.9064	20.9343
66.2465	22.0652
66.5866	22.6811
66.9281	23.8781
67.2682	24.7418
67.6082	25.454
67.9497	25.9181
68.2897	26.5075
68.6296	27.0688
68.9711	27.5427
69.3111	28.1336
69.651	28.5304
69.9924	28.7657
70.3323	28.941
70.6722	29.209
71.0121	29.502
71.3534	29.6966
71.6933	29.5994
72.0331	29.5313
72.3744	29.5692
72.7142	29.6868
73.054	30.0119
73.3938	30.7108
73.735	31.4138
74.0748	32.4331
74.4145	34.1135
74.7542	36.1348
75.0939	38.5918
75.4351	41.4521
75.7747	44.6058
76.1144	48.6618
76.454	53.3654
76.7937	58.7538
77.1348	65.063
77.4744	71.3363
77.8139	77.9642
78.1535	85.1649
78.493	92.6748
78.8326	100.565
79.1721	108.945
79.5131	117.339
79.8526	125.691
80.1921	133.989
80.5315	141.997
80.871	149.833
81.2104	157.091
81.5498	163.812
81.8892	170.455
82.2286	177.114
82.568	183.526
82.9088	187.228
83.2482	188.856
83.5875	188.969
83.9268	188.608
84.2661	186.879
84.6054	184.793
84.9447	182.566
85.2839	180.424
85.6232	177.979
85.9624	175.633
86.3016	173.021
86.6408	170.758
86.98	168.58
87.3191	167.296
87.6583	165.981
87.9974	164.76
88.3366	163.364
88.6757	162.314
89.0148	161.099
89.3538	160.65
89.6929	160.174
90.0319	159.795
90.371	159.648
90.7085	158.992
91.0475	158.068
91.3865	156.465
91.7255	154.401
92.0644	152.076
92.4034	149.823
92.7423	147.904
93.0812	146.191
93.4201	144.237
93.759	142.317
94.0964	140.536
94.4352	138.505
94.7741	136.335
95.1129	134.159
95.4517	132.065
95.7905	130.015
96.1278	127.973
96.4666	126.073
96.8053	124.241
97.1441	122.577
97.4828	121.026
97.8215	119.522
98.1587	118.037
98.4974	116.617
98.8361	115.212
99.1747	113.724
99.5119	111.97
99.8505	109.925
100.189	107.696
100.528	105.854
100.865	104.163
101.203	102.693
101.542	100.845
101.88	99.2202
102.217	97.6551
102.556	96.1073
102.894	94.7542
103.231	93.6555
103.57	92.596
103.908	91.5173
104.247	90.5186
104.584	89.5587
104.922	88.6606
105.26	87.8635
105.597	87.1218
105.936	86.3252
106.273	85.5443
106.611	84.6092
106.949	83.4319
107.286	81.9123
107.624	80.1786
107.963	78.3351
108.299	76.5042
108.638	74.9367
108.974	73.561
109.313	72.109
109.651	70.6642
109.987	69.3335
110.326	68.2201
110.662	67.1407
111	66.0521
111.337	65.109
111.675	64.256
112.012	63.3516
112.35	62.3789
112.688	61.5126
113.024	60.865
113.363	60.1754
113.699	59.6031
114.037	59.0296
114.374	58.4139
114.712	57.7979
115.048	57.1143
115.384	56.1519
115.722	55.0905
116.059	54.1972
116.397	53.5141
116.733	52.9065
117.071	52.2283
117.407	51.2562
117.745	50.2092
118.082	49.1417
118.418	48.0186
118.756	46.8624
119.092	45.6857
119.43	44.6668
119.766	43.7495
120.102	42.9384
120.44	42.2633
120.776	41.6944
121.114	41.2509
121.45	40.9484
121.786	40.7616
122.124	40.5592
122.46	40.221
122.796	39.6111
123.134	38.8135
123.47	37.779
123.806	36.6355
124.144	35.5074
124.48	34.4173
124.816	33.3656
125.153	32.446
125.489	31.5961
125.825	30.9701
126.161	30.3648
126.499	29.8453
126.835	29.3449
127.171	28.9214
127.507	28.5974
127.844	28.2555
128.18	27.99
128.516	27.6713
128.852	27.1468
129.189	26.6117
129.525	25.7152
129.861	25.5989
130.197	25.4734
130.532	25.088
130.87	24.5734
131.205	23.8948
131.541	23.2741
131.877	22.6848
132.213	22.0744
132.548	21.4641
132.886	20.8667
133.221	20.3657
133.557	19.8733
133.893	19.3691
134.228	18.8396
134.564	18.3504
134.9	17.8669
135.235	17.412
135.572	16.9964
135.908	16.6417
136.243	16.3486
136.579	16.0421
136.914	15.7714
137.25	15.504
137.585	15.3342
137.921	15.2206
138.256	15.1259
138.592	14.9596
138.927	14.6912
139.263	14.2696
139.598	13.7419
139.934	13.2275
140.269	12.6983
140.604	12.2224
140.94	11.7199
141.275	11.2177
141.61	10.7385
141.946	10.2509
142.281	9.8453
142.616	9.53082
142.952	9.20125
143.287	8.99261
143.622	8.75397
143.957	8.53629
144.293	8.34869
144.628	8.29683
144.963	8.19084
145.298	8.11225
145.633	8.05454
145.968	7.97802
146.303	7.89544
146.637	7.79925
146.972	7.64659
147.307	7.49725
147.642	7.3168
147.977	7.16978
148.312	6.9059
148.648	6.51296
148.981	6.22195
149.316	6.04857
149.651	5.94188
149.986	5.86185
150.321	5.74877
150.656	5.67904
150.989	5.62321
151.324	5.62384
151.659	5.58861
151.994	5.56407
152.329	5.30049
152.662	5.19771
152.997	5.13002
153.332	5.14193
153.667	5.12363
154	5.08647
154.335	4.95815
154.67	4.79429
155.004	4.62139
155.338	4.38332
155.672	4.20483
156.007	4.07137
156.342	3.91401
156.675	3.68449
157.01	3.47778
157.344	3.31509
157.677	3.15979
158.012	3.00895
158.347	2.85466
158.68	2.71518
159.014	2.60336
159.349	2.59269
159.682	2.63368
160.016	2.71884
160.351	2.8567
160.684	2.98922
161.019	3.11853
161.353	3.24024
161.686	3.211
162.02	3.14179
162.353	3.10841
162.688	3.02964
163.021	2.9233
163.355	2.81874
163.69	2.71684
164.022	2.62671
164.357	2.4486
164.69	2.19589
165.024	1.91127
165.357	1.65266
165.691	1.38645
166.024	1.13559
166.358	0.924389
166.692	0.710373
167.025	0.5067
167.359	0.361621
167.692	0.315524
168.026	0.327882
168.359	0.364706
168.692	0.49182
169.026	0.606472
169.358	0.678298
169.693	0.767392
170.025	0.861062
170.359	0.85521
170.692	0.882813
171.026	0.892218
171.359	0.912427
171.691	0.904372
172.025	0.808238
172.358	0.634532
172.692	0.465626
173.024	0.303559
173.357	0.17779
173.691	0.0752417
174.023	0.0155328
174.357	-0.107834
174.689	-0.159257
175.022	-0.153226
175.356	-0.111133
175.688	-0.0823545
176.02	-0.0670544
176.354	-0.00875588
176.687	-0.0113473
177.019	-0.0754394
177.353	-0.0361792
177.685	-0.0608962
178.017	-0.0978599
178.351	-0.206968
178.683	-0.0743064
179.016	0.0290221
179.348	0.154954
179.682	0.19711
180.014	0.21508
180.346	0.225734
180.678	0.244182
181.012	0.253767
181.344	0.276644
181.676	0.408178
182.008	0.491899
182.342	0.507818
182.674	0.500904
183.006	0.543175
183.338	0.542074
183.67	0.535305
184.003	0.519762
184.335	0.541966
184.667	0.357702
184.999	0.352564
185.331	0.432139
185.663	0.623169
185.997	0.72473
186.329	0.790619
186.661	0.720288
186.993	0.68046
187.324	0.693412
187.656	0.764337
187.988	0.954604
188.32	1.10338
188.652	1.21183
188.985	1.31307
189.317	1.34469
189.649	1.38564
189.98	1.3606
190.312	1.358
190.644	1.41643
190.976	1.43592
191.307	1.47163
191.639	1.49776
191.971	1.54812
192.303	1.59453
192.634	1.64359
192.966	1.68463
193.297	1.79518
193.629	1.94044
193.961	1.95259
194.292	1.95019
194.624	1.92648
194.955	1.90074
195.287	1.83784
195.618	1.76371
195.95	1.60368
196.282	1.42186
196.613	1.32004
196.944	1.26398
197.276	1.24011
197.607	1.25914
197.939	1.25657
198.269	1.30979
198.6	1.3423
198.932	1.3899
199.263	1.39782
199.594	1.37132
199.926	1.37931
200.257	1.42368
200.588	1.45672
200.92	1.51866
201.249	1.52353
201.581	1.46835
201.912	1.38249
202.243	1.24278
202.574	1.20565
202.906	1.15204
203.235	1.14746
203.567	1.1583
203.898	1.09784
204.229	0.997938
204.56	0.906268
204.89	0.8046
205.221	0.679283
205.552	0.577459
205.883	0.545095
206.213	0.479462
206.544	0.460642
206.875	0.451616
207.206	0.563248
207.535	0.736558
207.866	0.765347
208.197	0.797466
208.528	0.706463
208.858	0.672834
209.189	0.665256
209.52	0.654429
209.849	0.726232
210.18	0.827913
210.511	0.913772
210.84	0.994869
211.171	1.08202
211.502	1.22167
211.832	1.32811
212.162	1.38974
212.493	1.36848
212.823	1.37352
213.153	1.35752
213.483	1.36656
213.813	1.33805
214.144	1.27747
214.473	1.26471
214.804	1.32528
215.133	1.38898
215.464	1.50708
215.795	1.59924
216.124	1.69829
216.455	1.78916
216.784	1.85082
217.114	1.83101
217.443	1.82509
217.774	1.91369
218.103	1.96926
218.434	2.06271
218.763	2.06864
219.093	1.8682
219.422	1.79749
219.753	1.74605
220.082	1.65097
220.412	1.43918
220.741	1.42999
221.072	1.391
221.401	1.35413
221.731	1.31028
222.06	1.24957
222.391	1.3147
222.719	1.32777
223.048	1.33766
223.379	1.34234
223.708	1.31931
224.038	1.29924
224.367	1.28624
224.697	1.24251
225.026	1.24061
225.355	1.29227
225.685	1.36968
226.014	1.43571
226.342	1.47869
226.673	1.47604
227.001	1.49402
227.33	1.49237
227.66	1.39283
227.989	1.23671
228.318	1.12382
228.648	1.03656
228.976	0.941978
229.305	0.887769
229.635	0.857799
229.964	0.843503
230.292	0.832067
230.622	0.798526
230.951	0.796633
231.279	0.833066
231.608	0.842661
231.938	0.809787
232.266	0.715387
232.595	0.602301
232.923	0.56648
233.253	0.576652
233.582	0.640932
233.91	0.638649
234.239	0.605812
234.567	0.584928
234.897	0.560603
235.225	0.432424
235.554	0.303225
235.882	0.21678
236.21	0.142461
236.54	0.0933855
236.868	0.038251
237.197	-0.184749
237.525	-0.161335
237.853	-0.211229
238.181	0.0353761
238.51	0.0041286
238.838	0.0280209
239.168	-0.0262375
239.496	-0.113624
239.824	-0.173947
240.152	-0.234749
240.48	-0.21873
240.808	-0.197834
241.136	-0.142145
241.465	-0.0723309
241.793	-0.022033
242.121	0.0705462
242.449	0.0518853
242.777	0.0413886
243.105	-0.0118268
243.433	-0.0541486
243.761	-0.11681
244.089	-0.163522
244.417	-0.244342
244.745	-0.160476
245.073	-0.0723483
245.401	-0.027791
245.729	-0.000123074
246.057	0.0511561
246.385	0.110437
246.712	0.155736
247.04	0.204927
247.368	0.253532
247.696	0.310719
248.024	0.340525
248.352	0.393746
248.68	0.411215
249.007	0.365183
249.335	0.319203
249.663	0.225358
249.991	0.147836
250.318	0.0793472
250.645	0.0357143
250.972	-0.0121219
251.3	0.0109627
251.628	0.0425553
251.955	0.078543
252.283	0.15845
252.611	0.260477
252.937	0.372341
253.264	0.505893
253.592	0.658298
253.92	0.796018
254.247	0.913548
254.575	0.965667
254.901	0.943755
255.228	0.969314
255.556	1.00586
255.883	1.0297
256.209	1.07661
256.537	1.07188
256.864	1.02755
257.192	0.979489
257.518	0.936105
257.845	0.88543
258.173	0.791291
258.5	0.731106
258.826	0.761108
259.153	0.845798
259.481	0.978769
259.808	1.14466
260.134	1.27536
260.461	1.48025
260.788	1.55131
261.114	1.53424
261.441	1.4627
261.769	1.42743
262.094	1.42806
262.422	1.48597
262.749	1.53578
263.075	1.56412
263.402	1.5638
263.728	1.57665
264.055	1.58618
264.382	1.60522
264.707	1.62425
265.035	1.64553
265.36	1.71563
265.687	1.75398
266.014	1.81166
266.34	1.81459
266.667	1.68581
266.993	1.86255
267.32	1.95362
267.645	1.9469
267.972	2.03458
268.298	2.04923
268.625	2.01191
268.952	1.98859
269.277	1.96286
269.604	1.97971
269.929	1.98661
270.256	1.99179
270.582	2.00793
270.907	2.03545
271.234	2.01839
271.559	1.97418
271.886	1.93761
272.212	1.87696
272.538	1.86325
272.864	1.91796
273.19	2.01838
273.516	2.12278
273.842	2.25169
274.168	2.35785
274.493	2.4039
274.82	2.43278
275.145	2.48611
275.472	2.54709
275.797	2.6023
276.122	2.65746
276.449	2.74103
276.774	2.79211
277.099	2.73177
277.425	2.71326
277.751	2.71175
278.076	2.72516
278.402	2.78046
278.727	2.86426
279.052	2.9951
279.379	3.05616
279.704	3.0823
280.029	3.06703
280.355	3.10411
280.68	3.11135
281.005	3.0859
281.33	3.06136
281.657	3.14919
281.982	3.38776
282.307	3.51086
282.632	3.54635
282.958	3.53777
283.283	3.4946
283.608	3.4588
283.932	3.40777
284.257	3.42748
284.584	3.40093
284.908	3.37276
285.233	3.385
285.558	3.41695
285.883	3.46768
286.209	3.53314
286.534	3.55727
286.858	3.60172
287.183	3.64466
287.508	3.69334
287.833	3.71925
288.157	3.76064
288.483	3.7845
288.808	3.84132
289.133	3.86657
289.457	3.87473
289.782	3.82981
290.106	3.77118
290.431	3.7698
290.756	3.7653
291.08	3.78661
291.405	3.81441
291.731	3.82958
292.055	3.85818
292.38	3.88131
292.704	3.90121
293.029	3.93437
293.353	3.94976
293.678	3.98272
294.002	4.02399
294.326	4.08395
294.651	4.17289
294.975	4.26612
295.3	4.30701
295.624	4.2783
295.948	4.20935
296.273	4.13532
296.597	4.1081
296.921	4.12043
297.244	4.35302
297.568	4.33616
297.893	4.32994
298.217	4.32388
298.541	4.24981
298.865	4.23262
299.19	4.15784
299.514	4.13618
299.838	4.16662
300.162	4.25493
300.486	4.35198
300.809	4.4681
301.133	4.5491
301.457	4.67341
301.781	4.80663
302.105	4.9083
302.43	4.97053
302.754	5.05643
303.076	5.12095
303.4	5.17948
303.724	5.19248
304.048	5.18278
304.372	5.19379
304.695	5.20039
305.019	5.21465
305.343	5.24108
305.667	5.29681
305.991	5.39504
306.313	5.44654
306.637	5.47504
306.961	5.53447
307.285	5.64133
307.607	5.78389
307.931	5.88238
308.255	5.92287
308.577	5.94057
308.901	5.96037
309.225	5.97156
309.549	5.97361
309.871	5.992
310.195	5.96297
310.518	5.86776
310.841	5.83001
311.164	5.79959
311.488	5.79411
311.81	5.83455
312.134	5.85058
312.456	5.83588
312.78	5.82735
313.103	5.81719
313.426	5.82929
313.749	5.83703
314.073	5.82318
314.395	5.76729
314.718	5.70352
315.04	5.66025
315.364	5.64181
315.686	5.63881
316.01	5.62371
316.333	5.59083
316.655	5.55129
316.979	5.52157
317.301	5.47139
317.624	5.47468
317.946	5.45396
318.269	5.38836
318.591	5.32378
318.915	5.2931
319.237	5.28345
319.56	5.29534
319.882	5.29707
320.205	5.30064
320.527	5.29208
320.85	5.29382
321.172	5.29168
321.496	5.30484
321.817	5.31332
322.139	5.32468
322.462	5.35485
322.784	5.3594
323.107	5.40077
323.429	5.38565
323.752	5.34453
324.074	5.29266
324.396	5.23837
324.719	5.23251
325.04	5.19736
325.362	5.12542
325.685	5.0456
326.007	4.95757
326.33	4.87563
326.652	4.78858
326.973	4.70967
327.296	4.64804
327.618	4.62452
327.939	4.60266
328.261	4.56468
328.584	4.52982
328.905	4.49876
329.227	4.44936
329.55	4.42533
329.871	4.42231
330.193	4.41017
330.514	4.40875
330.837	4.39962
331.158	4.39434
331.48	4.33033
331.801	4.25615
332.124	4.15493
332.445	4.07473
332.767	4.02025
333.088	3.96273
333.409	3.8885
333.732	3.85554
334.054	3.81309
334.375	3.76184
334.696	3.79373
335.017	3.78603
335.34	3.80098
335.661	3.84597
335.983	3.89247
336.304	3.86301
336.625	3.82896
336.946	3.79116
337.267	3.75775
337.59	3.67061
337.911	3.64819
338.232	3.78168
338.553	3.80649
338.874	3.83216
339.195	3.8379
339.516	3.80188
339.838	3.75481
340.159	3.70618
340.48	3.63329
340.801	3.52977
341.122	3.41499
341.443	3.37402
341.764	3.46289
341.872	3.50948
342.198	3.54912
342.524	3.48265
342.849	3.38178
343.174	3.29207
343.5	3.21612
343.826	3.14093
344.152	3.07589
344.477	3.00739
344.802	2.95821
345.127	2.88948
345.452	2.82721
345.779	2.78185
346.104	2.75219
346.429	2.74985
346.755	2.74183
347.08	2.71788
347.405	2.65604
347.73	2.73535
348.056	2.88384
348.382	3.03822
348.707	3.15758
349.032	3.18426
349.357	3.17141
349.682	3.16736
350.007	3.12207
350.332	3.03503
350.657	2.93918
350.982	2.87611
351.307	2.81635
351.632	2.75344
351.956	2.68623
352.281	2.64462
352.606	2.66766
352.933	2.62291
353.257	2.58416
353.582	2.55603
353.907	2.5036
354.232	2.40607
354.557	2.34242
354.882	2.34992
355.205	2.39417
355.53	2.50488
355.854	2.64211
356.179	2.77293
356.504	2.86372
356.829	2.88641
357.153	2.91898
357.478	2.95575
357.803	2.9682
358.127	2.92952
358.452	2.88788
358.777	2.85518
359.101	2.76133
359.426	2.68954
359.751	2.69799
360.074	2.67313
360.398	2.61847
360.723	2.55826
361.047	2.46687
361.372	2.396
361.696	2.32675
362.021	2.3139
362.344	2.26312
362.668	2.20751
362.993	2.09983
363.317	1.98747
363.642	1.88617
363.966	1.79889
364.289	1.73501
364.613	1.67626
364.938	1.64254
365.262	1.63118
365.587	1.69229
365.909	1.65118
366.234	1.61718
366.558	1.58384
366.882	1.56235
367.205	1.5295
367.53	1.48968
367.854	1.44419
368.178	1.39565
368.501	1.34571
368.825	1.2943
369.149	1.2214
369.472	1.10612
369.796	0.989869
370.12	0.88759
370.444	0.797516
370.767	0.742226
371.091	0.715768
371.415	0.719555
371.738	0.7327
372.062	0.760532
372.386	0.804234
372.709	0.858157
373.033	0.876094
373.355	0.874961
373.679	0.839854
374.003	0.781095
374.326	0.70641
374.65	0.632005
374.972	0.57295
375.296	0.537961
375.62	0.532765
375.943	0.548283
376.267	0.53639
376.589	0.477554
376.913	0.417823
377.237	0.365562
377.559	0.332277
377.883	0.325922
378.205	0.335807
378.529	0.35572
378.852	0.370002
379.175	0.319077
379.498	0.285914
379.821	0.251973
380.144	0.264193
380.467	0.324333
380.79	0.39837
381.113	0.294553
381.436	0.25395
381.759	0.213484
382.081	0.180506
382.405	0.16787
382.727	0.173562
383.049	0.191237
383.373	0.186561
383.695	0.193782
384.019	0.196805
384.341	0.197009
384.664	0.185325
384.987	0.168872
385.309	0.135009
385.632	0.134104
385.954	0.194384
386.278	0.09907
386.6	-0.163373
386.922	-0.0312534
387.245	0.0784426
387.567	0.028836
387.889	-0.0464313
388.212	-0.136705
388.534	-0.169469
388.856	-0.164201
389.18	-0.167314
389.502	-0.154164
389.823	-0.14137
390.147	-0.154223
390.469	-0.20557
390.79	-0.241813
391.114	-0.242517
391.436	-0.228101
391.757	-0.215774
392.079	-0.185773
392.402	-0.152433
392.724	-0.123122
393.046	-0.111839
393.368	-0.129113
393.691	-0.152108
394.013	-0.157278
394.334	-0.14773
394.656	-0.117477
394.979	-0.08738
395.301	-0.0865459
395.622	-0.109025
395.944	-0.105716
396.266	-0.0766647
396.589	-0.0228631
396.91	0.0416001
397.232	0.0849598
397.553	0.125703
397.875	0.181623
398.196	0.22161
398.518	0.239163
398.841	0.245731
399.162	0.241556
399.484	0.198731
399.805	0.101469
400.127	0.0330264
400.448	-0.0105174
400.77	-0.0152645
401.091	-0.0059377
401.413	0.0596163
401.735	0.130998
402.057	0.248257
402.378	0.346748
402.699	0.456792
403.021	0.529535
403.342	0.537736
403.663	0.633542
403.985	0.729007
404.306	0.809425
404.627	0.88989
404.948	0.967098
405.27	1.06249
405.591	1.15786
405.912	1.21803
406.233	1.28772
406.555	1.33137
406.876	1.3708
407.197	1.44514
407.518	1.53489
407.839	1.62337
408.16	1.70182
408.481	1.79441
408.802	1.9102
409.124	2.0243
409.445	2.15581
409.766	2.35682
410.085	2.61304
410.406	2.89099
410.727	3.14887
411.048	3.40122
411.369	3.64504
411.69	3.89577
412.011	4.11508
412.332	4.32868
412.653	4.5347
412.973	4.76253
413.293	5.05039
413.614	5.35306
413.935	5.6556
414.256	5.93285
414.577	6.19846
414.896	6.46735
415.217	6.73315
415.538	7.0039
415.859	7.26813
416.18	7.55034
416.499	7.84361
416.82	8.13991
417.14	8.45028
417.461	8.79171
417.782	9.16894
418.101	9.57744
418.422	9.9845
418.742	10.444
419.063	10.8578
419.382	11.2131
419.703	11.5169
420.024	12.0407
420.343	12.8399
420.663	13.5283
420.984	14.2288
421.305	14.9782
421.624	15.7983
421.944	16.5598
422.265	17.1141
422.584	17.7562
422.904	18.43
423.225	19.1533
423.544	19.9021
423.864	20.6792
424.185	21.4602
424.504	22.2111
424.824	22.951
425.143	23.6564
425.464	24.3101
425.784	24.9123
426.103	25.4249
426.423	25.86
426.742	26.2515
427.062	26.6255
427.383	26.9395
427.702	27.1608
428.022	27.3193
428.341	27.4149
428.661	27.4456
428.98	27.3569
429.3	27.189
429.619	26.9888
429.939	26.722
430.259	26.4329
430.578	26.0615
430.898	25.6601
431.217	25.2113
431.537	24.6845
431.856	24.0783
432.176	23.3985
432.494	22.6703
432.813	21.8909
433.133	21.1158
433.452	20.329
433.772	19.5265
434.09	18.714
434.41	17.8934
434.729	17.0882
435.049	16.323
435.368	15.6025
435.686	14.9138
436.006	14.2238
436.325	13.5836
436.645	12.9821
436.963	12.3967
437.281	11.828
437.601	11.323
437.92	10.7725
438.238	10.2738
438.558	9.80318
438.876	9.38221
439.195	9.00976
439.515	8.67385
439.833	8.39231
440.151	8.12442
440.471	7.84013
440.789	7.43143
441.108	7.09313
441.427	6.88506
441.746	6.6376
442.064	6.32512
442.384	6.0353
442.702	5.80238
443.02	5.60301
443.338	5.40568
443.658	5.2182
443.976	5.05898
444.294	4.90689
444.613	4.7889
444.932	4.71421
445.25	4.68629
445.568	4.74654
445.887	4.84485
446.205	4.93155
446.524	4.96797
446.842	4.97019
447.16	4.98983
447.478	5.03195
447.796	5.08317
448.114	5.14771
448.434	5.20854
448.752	5.26158
449.07	5.32003
449.388	5.37531
449.706	5.40291
450.024	5.4223
450.342	5.42937
450.661	5.4223
450.979	5.37635
451.297	5.31469
451.615	5.23828
451.932	5.15859
452.25	5.09852
452.568	5.04002
452.886	4.94894
453.204	4.80169
453.521	4.70376
453.839	4.54157
454.157	4.33993
454.475	4.09228
454.792	3.83475
455.11	3.53259
455.428	3.24994
455.746	3.00703
456.063	2.78464
456.381	2.62044
456.699	2.5395
457.016	2.50823
457.334	2.32415
457.652	2.18654
457.969	1.9699
458.287	1.82732
458.604	1.80609
458.922	1.78743
459.239	1.78367
459.557	1.7768
459.875	1.71521
460.192	1.658
460.51	1.60074
460.827	1.53684
461.145	1.48913
461.461	1.43937
461.778	1.39584
462.095	1.35141
462.413	1.25827
462.73	1.21122
463.048	1.16211
463.365	1.12839
463.682	1.11904
463.998	1.13725
464.316	1.14967
464.633	1.15671
464.95	1.18995
465.268	1.23005
465.583	1.26681
465.901	1.3052
466.218	1.36635
466.535	1.46131
466.853	1.60371
467.168	1.77284
467.486	1.97159
467.803	2.14247
468.12	2.28492
468.436	2.41129
468.753	2.53159
469.07	2.64625
469.387	2.77761
469.703	2.91358
470.02	3.06429
470.337	3.1935
470.654	3.33556
470.97	3.48176
471.287	3.62915
471.604	3.80048
471.919	4.0115
472.236	4.26688
472.553	4.55765
472.869	4.86438
473.186	5.18803
473.503	5.46481
473.818	5.68166
474.135	5.92135
474.452	6.20604
474.768	6.51963
475.085	6.87061
475.4	7.27104
475.717	7.69991
476.034	8.14811
476.349	8.59198
476.666	9.07122
476.981	9.59194
477.298	10.1214
477.614	10.6095
477.93	11.1082
478.247	11.6241
478.563	12.166
478.879	12.7047
479.195	13.2589
479.511	13.8155
479.827	14.3946
480.143	14.9748
480.458	15.5292
480.775	16.0971
481.09	16.6781
481.407	17.2479
481.722	17.8126
482.039	18.4259
482.354	19.0518
482.671	19.682
482.986	20.2677
483.302	20.8761
483.617	21.5372
483.932	22.2236
484.249	22.9218
484.564	23.6065
484.881	24.3053
485.196	24.9348
485.512	25.4874
485.827	26.0046
486.142	26.4808
486.459	26.9156
486.774	27.3094
487.089	27.6716
487.405	28.0012
487.72	28.2888
488.036	28.5532
488.351	28.7579
488.666	28.839
488.982	28.91
489.297	29.0458
489.612	29.089
489.927	29.1033
490.243	29.0901
490.558	28.9996
490.873	28.7753
491.189	28.4606
491.504	28.1231
491.819	27.7439
492.133	27.4282
492.45	27.1071
492.764	26.7001
493.079	26.4321
493.395	26.1763
493.71	25.8734
494.025	25.5484
494.339	25.1834
494.654	24.8048
494.97	24.3507
495.285	23.888
495.599	23.4031
495.914	22.8919
496.228	22.352
496.544	21.8373
496.859	21.3339
497.174	20.8597
497.488	20.3982
497.803	19.9305
498.117	19.3844
498.432	18.8453
498.748	18.3319
499.062	17.8271
499.377	17.3177
499.691	16.7975
500.005	16.4132
500.32	16.0225
500.634	15.6453
500.949	15.2388
501.263	14.8021
501.577	14.3872
501.893	14.0105
502.208	13.6479
502.522	13.3055
502.836	12.9086
503.151	12.5736
503.465	12.2215
503.779	11.9071
504.093	11.5752
504.408	11.2453
504.722	10.9166
505.036	10.5852
505.35	10.2704
505.665	9.92118
505.979	9.5827
506.293	9.27333
506.607	8.95439
506.921	8.65784
507.235	8.39266
507.55	8.13896
507.864	7.87187
508.178	7.67474
508.49	7.61302
508.805	7.51517
509.119	7.47292
509.433	7.44706
509.747	7.47159
510.061	7.51318
510.375	7.55574
510.689	7.55462
511.003	7.51049
511.317	7.46869
511.629	7.43976
511.943	7.40455
512.257	7.35374
512.571	7.29684
512.885	7.21168
513.199	7.07758
513.511	6.91083
513.825	6.67934
514.139	6.3983
514.453	6.08915
514.767	5.82013
515.079	5.58111
515.393	5.34497
515.707	5.12388
516.021	4.91374
516.334	4.70526
516.647	4.51154
516.96	4.3271
517.274	4.09628
517.588	3.89587
517.9	3.75784
518.214	3.70849
518.527	3.65572
518.84	3.58199
519.153	3.45841
519.467	3.33044
519.781	3.23177
520.093	3.15129
520.406	3.10722
520.72	3.06482
521.032	3.01836
521.346	2.96438
521.659	2.90102
521.971	2.83346
522.285	2.78269
522.597	2.73039
522.91	2.67938
523.224	2.65098
523.536	2.62358
523.849	2.61941
524.163	2.61394
524.475	2.62999
524.788	2.70893
525.1	2.70872
525.414	2.68978
525.726	2.63785
526.039	2.58498
526.352	2.50347
526.664	2.41262
526.978	2.3205
527.29	2.20055
527.603	2.14745
527.915	2.12396
528.228	2.15937
528.54	2.23575
528.853	2.31938
529.165	2.35394
529.478	2.30635
529.79	2.25372
530.103	2.17407
530.415	2.08226
530.728	1.70356
531.04	1.82642
531.353	1.68662
531.665	1.64295
531.976	1.84488
532.29	1.96277
532.601	1.933
532.914	1.90387
533.226	1.86029
533.539	1.82281
533.851	1.79594
534.162	1.78108
534.475	1.77039
534.787	1.68542
535.099	1.59172
535.411	1.49033
535.723	1.40399
536.036	1.33406
536.348	1.26548
536.659	1.21177
536.972	1.19678
537.283	1.18233
537.595	1.23556
537.908	1.3006
538.219	1.25917
538.531	1.20978
538.842	1.18204
539.155	1.15368
539.466	1.08228
539.778	0.935963
540.091	0.813017
540.402	0.649868
540.713	0.662191
541.025	0.72389
541.337	0.8923
541.649	0.879769
541.96	0.859205
542.271	0.838239
542.582	0.760922
542.895	0.777168
543.206	0.804457
543.518	0.812579
543.829	0.811803
544.14	0.786938
544.453	0.762064
544.764	0.746526
545.075	0.748344
545.386	0.773268
545.697	0.798174
546.008	0.819866
546.32	0.778472
546.632	0.804464
546.943	0.84896
547.254	0.898225
547.565	0.933282
547.876	0.930447
548.187	0.893419
548.498	0.854491
548.81	0.785052
549.12	0.700061
549.431	0.629073
549.744	0.557406
550.055	0.489491
550.366	0.441232
550.677	0.434462
550.988	0.409799
551.299	0.395915
551.609	0.387226
551.92	0.375958
552.231	0.373436
552.542	0.385742
552.853	0.396899
553.164	0.422086
553.475	0.403552
553.785	0.348709
554.096	0.278891
554.407	0.216232
554.718	0.149512
555.029	0.129105
555.339	0.114936
555.649	0.100923
555.959	0.104205
556.27	0.109648
556.581	0.133926
556.891	0.197075
557.202	0.238668
557.513	0.271738
557.823	0.233292
558.134	0.146266
558.445	0.0369394
558.754	-0.0535374
559.065	-0.127802
559.375	-0.175839
559.686	-0.257568
559.996	-0.314299
560.307	-0.33534
560.617	-0.361152
560.926	-0.359631
561.237	-0.344255
561.547	-0.299741
561.858	-0.245237
562.168	-0.186866
562.477	-0.127452
562.788	-0.0670545
563.098	-0.00927598
563.409	0.00463426
563.718	0.0110317
564.028	-0.0540985
564.339	-0.0505806
564.649	-0.0283147
564.958	0.00226372
565.268	0.0491964
565.579	0.104741
565.889	0.15885
566.198	0.19878
566.508	0.223253
566.818	0.212003
567.127	0.199545
567.437	0.209426
567.748	0.218416
568.057	0.19708
568.367	0.17688
568.677	0.150311
568.986	0.12075
569.296	0.0761449
569.606	0.0257902
569.915	-0.0333899
570.225	-0.0689872
570.535	-0.0707305
570.844	-0.0646034
571.154	-0.0463037
571.463	-0.00737122
571.773	0.0508418
572.083	0.0956651
572.391	0.136298
572.701	0.143171
573.01	0.121749
573.32	0.0722103
573.629	0.0399424
573.939	0.0138578
574.247	-0.0309907
574.557	-0.0617527
574.867	-0.0369936
575.176	-0.0555507
575.486	-0.081741
575.794	-0.0832381
576.104	-0.0475283
576.412	-0.0201137
576.722	0.0263544
577.031	0.093274
577.339	0.156916
577.649	0.223343
577.957	0.310934
578.267	0.425007
578.576	0.554111
578.885	0.664508
579.194	0.801145
579.504	0.908033
579.812	0.973188
580.12	1.01762
580.43	1.03955
580.738	1.06728
581.048	1.03828
581.356	0.978956
581.665	1.02436
581.974	1.05357
582.282	1.03978
582.591	1.04194
582.9	1.06397
583.208	1.09254
583.517	1.12914
583.826	1.18047
584.134	1.24145
584.443	1.33312
584.752	1.43746
585.06	1.60441
585.368	1.70931
585.678	1.80578
585.986	1.94583
586.294	2.09847
586.602	2.24864
586.912	2.38065
587.22	2.46086
587.528	2.37246
587.836	2.30064
588.145	2.20484
588.453	2.16844
588.761	2.55621
589.069	2.84414
589.378	2.9501
589.686	3.06762
589.994	3.23121
590.302	3.34525
590.61	3.43897
590.919	3.56525
591.227	3.70015
591.535	3.8328
591.843	3.9594
592.151	4.07829
592.459	4.186
592.766	4.2697
593.076	4.3513
593.383	4.49436
593.691	4.65534
593.999	4.81562
594.307	4.91793
594.615	5.03333
594.922	5.13853
595.23	5.24151
595.538	5.39003
595.845	5.54978
596.154	5.7298
596.462	5.96708
596.77	6.1444
597.077	6.32404
597.385	6.50363
597.693	6.68936
598	6.894
598.308	7.10741
598.615	7.22935
598.923	7.36979
599.231	7.47065
599.538	7.56927
599.846	7.66449
600.153	7.76388
600.461	7.83146
600.768	7.87059
601.076	7.89911
601.383	7.94399
601.689	8.04308
601.997	8.14177
602.304	8.22161
602.611	8.25507
602.919	8.36387
603.226	8.46572
603.534	8.59681
603.841	8.74254
604.148	8.84789
604.456	8.9248
604.763	8.96985
605.069	9.01756
605.376	9.04995
605.683	9.0524
605.991	9.04869
606.298	9.05847
606.605	9.11652
606.911	9.1641
607.218	9.16744
607.526	9.0714
607.833	8.95655
608.14	8.85116
608.446	8.76918
608.753	8.69138
609.06	8.61519
609.367	8.55441
609.674	8.4987
609.98	8.4244
610.287	8.36272
610.594	8.31922
610.901	8.26481
611.207	8.23798
611.514	8.23378
611.821	8.24191
612.127	8.28929
612.434	8.36498
612.741	8.44647
613.048	8.52908
613.353	8.59944
613.66	8.66283
613.967	8.70378
614.273	8.70899
614.58	8.70007
614.887	8.6818
615.192	8.66232
615.499	8.65112
615.805	8.66306
616.111	8.66364
616.418	8.67436
616.724	8.6772
617.031	8.70003
617.337	8.74164
617.643	8.81275
617.95	8.88658
618.255	8.99236
618.562	9.1069
618.867	9.22801
619.174	9.36051
619.481	9.50408
619.786	9.61298
620.093	9.71802
620.398	9.82081
620.705	9.92332
621.01	10.0176
621.316	10.1054
621.622	10.2102
621.928	10.3232
622.234	10.4665
622.54	10.6266
622.845	10.8035
623.152	10.9835
623.457	11.1719
623.764	11.4072
624.069	11.6638
624.374	11.947
624.68	12.2309
624.986	12.5318
625.292	12.8427
625.597	13.1543
625.904	13.4661
626.209	13.7665
626.514	14.0092
626.82	14.2162
627.125	14.4236
627.43	14.5891
627.737	14.7413
628.042	14.8721
628.348	14.9751
628.653	15.0327
628.958	15.0775
629.264	15.1698
629.569	15.252
629.874	15.3984
630.18	15.4447
630.485	15.4376
630.79	15.419
631.095	15.3676
631.401	15.3237
631.706	15.3171
632.011	15.3477
632.316	15.3565
632.622	15.3869
632.927	15.4324
633.231	15.5302
633.536	15.6872
633.842	15.8761
633.986	15.9739
634.295	16.1045
634.605	16.084
634.914	15.9493
635.224	15.6875
635.533	15.3159
635.843	14.8097
636.152	14.1744
636.462	13.5103
636.771	12.9199
637.08	12.404
637.39	11.988
637.699	11.6381
638.009	11.4013
638.318	11.2488
638.628	11.2792
638.937	11.2514
639.246	11.3102
639.556	11.4262
639.865	11.5997
640.173	11.7817
640.483	11.8876
640.792	11.9934
641.102	12.0602
641.411	11.982
641.72	11.9615
642.03	11.9635
642.338	11.9378
642.647	11.8757
642.955	11.7528
643.265	11.6075
643.574	11.3717
643.883	11.1104
644.192	10.6711
644.501	10.2205
644.809	9.73817
645.119	9.47429
645.428	9.08647
645.736	8.66427
646.045	8.29002
646.355	7.95664
646.663	7.63615
646.972	7.33117
647.28	7.06952
647.588	6.86797
647.898	6.71494
648.207	6.61367
648.515	6.53431
648.823	6.44974
649.132	6.35064
649.441	6.24784
649.75	6.12961
650.058	6.02841
650.366	5.97487
650.674	5.93226
650.983	5.87535
651.292	5.84041
651.601	5.81297
651.909	5.74637
652.217	5.69386
652.525	5.56766
652.833	5.44216
653.142	5.37261
653.45	5.34592
653.758	5.3013
654.068	5.20054
654.376	5.11865
654.684	5.0976
654.992	5.10522
655.3	5.09407
655.608	5.07114
655.916	5.03078
656.224	5.00517
656.532	4.99952
656.84	4.99611
657.148	4.99395
657.456	4.94888
657.764	4.88333
658.072	4.80442
658.38	4.73021
658.688	4.72241
658.996	4.72725
659.304	4.75223
659.612	4.79846
659.92	4.82806
660.228	4.8718
660.536	4.91484
660.844	4.9436
661.151	4.92486
661.459	4.92363
661.767	4.94332
662.075	4.96444
662.381	4.99264
662.689	4.97903
662.997	4.96448
663.305	4.9669
663.612	4.99321
663.92	5.00759
664.228	5.02256
664.535	5.01815
664.843	5.0148
665.149	5.0082
665.457	5.01977
665.765	5.05179
666.072	5.07549
666.38	5.1271
666.688	5.24201
666.994	5.25207
667.302	5.2843
667.609	5.31845
667.917	5.36773
668.224	5.39727
668.53	5.42202
668.838	5.40181
669.146	5.4217
669.453	5.43802
669.76	5.43499
670.067	5.44628
670.374	5.44842
670.682	5.43632
670.989	5.41226
671.295	5.35668
671.602	5.30464
671.91	5.26383
672.216	5.21901
672.523	5.19764
672.831	5.21274
673.138	5.25281
673.444	5.31362
673.751	5.39071
674.059	5.46946
674.365	5.54377
674.672	5.64183
674.979	5.76287
675.285	5.93266
675.592	6.11345
675.898	6.29509
676.205	6.48178
676.513	6.66323
676.818	6.86212
677.126	7.06427
677.433	7.25289
677.739	7.44099
678.046	7.54612
678.352	7.7512
678.659	8.16148
678.964	8.63066
679.272	9.09734
679.579	9.51387
679.884	10.0031
680.191	10.5397
680.497	11.1219
680.804	11.8479
681.11	12.6164
681.417	13.4325
681.722	14.2827
682.029	15.1537
682.335	15.9813
682.642	16.739
682.948	17.44
683.255	18.0721
683.56	18.6518
683.867	19.207
684.173	19.6561
684.479	20.0576
684.785	20.321
685.092	20.4514
685.397	20.4309
685.703	20.3131
686.01	19.9966
686.315	19.5468
686.622	18.965
686.927	18.4096
687.234	17.8487
687.539	17.2544
687.845	16.5943
688.152	15.949
688.457	15.3543
688.762	14.8188
689.069	14.48
689.374	14.0757
689.681	13.7729
689.986	13.5475
690.292	13.3431
690.598	13.1578
690.903	13.0226
691.209	12.9061
691.514	12.8294
691.82	12.7873
692.126	12.7494
692.431	12.7236
692.737	12.7226
693.043	12.6809
693.348	12.6912
693.653	12.8041
693.959	12.9667
694.265	13.1482
694.57	13.3992
694.875	13.7412
695.181	14.0407
695.486	14.3093
695.791	14.5817
696.096	14.8495
696.403	15.1063
696.708	15.3637
697.013	15.6557
697.318	15.9711
697.623	16.3168
697.929	16.7035
698.234	17.1439
698.539	17.5709
698.844	18.0543
699.149	18.5744
699.454	19.1261
699.759	19.7063
700.065	20.3102
700.37	20.9318
700.675	21.6048
700.98	22.3126
701.284	23.043
701.589	23.7853
701.894	24.5147
702.199	25.2015
702.504	25.8529
702.81	26.5234
703.115	27.1902
703.419	27.8458
703.724	28.4786
704.029	29.1055
704.333	29.769
704.638	30.5034
704.943	31.2222
705.247	31.9075
705.552	32.5335
705.857	33.1197
706.161	33.7017
706.466	34.2615
706.771	34.7923
707.075	35.2578
707.38	35.6374
707.684	35.9603
707.989	36.2032
708.293	36.3309
708.598	36.3448
708.903	36.2092
709.207	35.9571
709.512	35.5823
709.815	35.0672
710.119	34.3981
710.424	33.5892
710.728	32.8007
711.032	31.9189
711.337	31.0331
711.641	30.1584
711.946	29.2097
712.25	28.1746
712.554	27.0821
712.857	25.9732
713.162	24.6955
713.466	23.6242
713.77	22.5211
714.075	21.5595
714.379	20.6724
714.682	19.8803
714.986	19.089
715.29	18.3533
715.595	17.6868
715.899	17.0766
716.202	16.3976
716.506	15.8004
716.81	15.2732
717.114	14.779
717.419	14.3471
717.721	13.9289
718.026	13.5057
718.33	13.1004
718.634	12.7297
718.937	12.3809
719.241	12.0643
719.545	11.7315
719.847	11.4251
720.152	11.1215
720.456	10.8382
720.76	10.4872
721.062	10.2729
721.366	10.1352
721.67	10.0035
721.973	9.87069
722.277	9.66961
722.581	9.47341
722.883	9.33248
723.187	9.21199
723.491	9.14145
723.794	9.00049
724.098	8.89961
724.4	8.90299
724.704	8.8643
725.008	8.84882
725.31	8.79268
725.614	8.67807
725.917	8.49874
726.221	8.33726
726.524	8.16286
726.827	8.00418
727.131	7.89194
727.433	7.82062
727.737	7.89737
728.039	7.97899
728.343	8.02251
728.645	7.98171
728.949	7.9174
729.251	7.82527
729.555	7.73326
729.857	7.6576
730.161	7.55461
730.463	7.46346
730.767	7.39169
731.069	7.26879
731.373	7.17512
731.675	7.07495
731.979	7.00409
732.281	6.92914
732.584	6.9296
732.886	6.98698
733.189	7.06453
733.492	7.11123
733.794	7.12302
734.098	7.07685
734.4	6.95895
734.703	6.85327
735.005	6.75168
735.307	6.65505
735.611	6.5578
735.913	6.40354
736.215	6.22175
736.518	6.13136
736.82	6.12378
737.122	6.11028
737.426	6.12714
737.728	6.12079
738.03	6.05369
738.333	5.91937
738.635	5.77945
738.937	5.63544
739.24	5.4908
739.542	5.36009
739.844	5.26269
740.147	5.16133
740.449	4.9736
740.751	4.75074
741.053	4.54568
741.356	4.34385
741.658	4.16639
741.96	4.00535
742.262	3.94012
742.565	3.91174
742.866	4.25117
743.168	4.1592
743.47	4.16601
743.772	3.99079
744.075	3.88613
744.377	3.80504
744.678	3.72932
744.98	3.67487
745.282	3.63212
745.583	3.67304
745.886	3.62076
746.188	3.57366
746.49	3.5724
746.791	3.6071
747.093	3.6537
747.394	3.73803
747.696	3.84114
747.999	3.95934
748.3	4.10016
748.602	4.26204
748.904	4.40234
749.205	4.5342
749.506	4.67236
749.808	4.80521
750.109	4.96766
750.411	5.08662
750.712	5.21807
751.014	5.35679
751.315	5.55111
751.617	5.79128
751.918	6.10013
752.219	6.46705
752.521	6.85966
752.822	7.20625
753.124	7.54115
753.425	7.82208
753.726	8.07704
754.028	8.26307
754.329	8.47548
754.63	8.6375
754.932	8.71902
755.233	8.79868
755.534	8.77558
755.835	8.6935
756.137	8.49805
756.438	8.2385
756.739	7.96154
757.04	7.64416
757.341	7.25445
757.643	6.79497
757.944	6.38528
758.243	5.96444
758.545	5.52622
758.846	5.12458
759.147	4.73011
759.448	4.37319
759.749	4.0031
760.05	3.68985
760.351	3.37105
760.651	3.03684
760.952	2.77173
761.253	2.55003
761.554	2.30555
761.855	2.06352
762.155	1.83768
762.456	1.63737
762.757	1.46978
763.058	1.33343
763.358	1.26966
763.658	1.25723
763.959	1.36209
764.26	1.46035
764.561	1.52143
764.86	1.52776
765.161	1.50003
765.462	1.52012
765.763	1.51916
766.062	1.50172
766.363	1.51815
766.664	1.51981
766.963	1.58053
767.264	1.6765
767.565	1.74844
767.864	1.81504
768.165	1.90594
768.466	1.97368
768.765	2.03802
769.066	2.13583
769.367	2.25463
769.666	2.416
769.967	2.53024
770.267	2.71468
770.567	2.89627
770.867	3.06646
771.167	3.19274
771.467	3.31704
771.768	3.41842
772.067	3.49391
772.368	3.53687
772.667	3.58119
772.967	3.59608
773.268	3.6217
773.567	3.6454
773.868	3.67402
774.167	3.67692
774.467	3.69021
774.766	3.72823
775.067	3.78601
775.366	3.84435
775.666	3.88244
775.965	3.9022
776.266	3.86488
776.565	3.82468
776.865	3.76007
777.164	3.71594
777.465	3.68814
777.764	3.7356
778.064	3.93116
778.363	3.976
778.663	4.01006
778.962	3.99722
779.261	3.95005
779.562	3.87487
779.86	3.77725
780.161	3.6766
780.46	3.59621
780.759	3.52624
781.059	3.49708
781.358	3.42859
781.658	3.33388
781.957	3.22391
782.255	3.09442
782.556	2.94927
782.854	2.86307
783.153	2.78345
783.453	2.73653
783.752	2.68991
784.051	2.64319
784.351	2.60244
784.65	2.56932
784.948	2.56469
785.248	2.54932
785.547	2.55176
785.846	2.59997
786.145	2.6689
786.445	2.72894
786.743	2.77899
787.042	2.82862
787.34	2.94983
787.64	2.97868
787.939	2.87294
788.238	2.78238
788.536	2.65518
788.836	2.53209
789.135	2.41352
789.433	2.24651
789.732	2.05695
790.03	1.86804
790.33	1.67377
790.629	1.54969
790.927	1.4478
791.225	1.34478
791.524	1.31326
791.822	1.21274
792.122	1.15676
792.421	1.0772
792.719	0.967735
793.017	0.877905
793.316	0.850247
793.614	0.791558
793.912	0.721136
794.211	0.660042
794.51	0.608292
794.809	0.578048
795.107	0.559368
795.405	0.555004
795.704	0.541071
796.002	0.509329
796.3	0.42443
796.598	0.292438
796.897	0.166743
797.195	0.093486
797.493	0.0511123
797.791	0.0609161
798.089	0.0316475
798.388	-0.0363614
798.686	-0.0940112
798.984	-0.135074
799.282	-0.154846
799.58	-0.174015
799.878	-0.167527
800.176	-0.130155
800.475	-0.0787792
800.773	-0.145028
801.071	-0.0799046
801.369	-0.00393291
801.667	0.0786234
801.965	0.181055
802.263	0.27864
802.561	0.403416
802.857	0.49019
803.155	0.593023
803.453	0.695855
803.751	0.806673
804.049	0.954855
804.347	1.09276
804.645	1.30977
804.943	1.5468
805.24	1.7902
805.538	2.01566
805.835	2.19751
806.133	2.35833
806.431	2.5206
806.729	2.68577
807.025	2.86405
807.323	3.04635
807.621	3.22763
807.919	3.42591
808.217	3.59283
808.513	3.73777
808.811	3.89763
809.109	4.03657
809.406	4.15174
809.703	4.28576
810	4.42628
810.298	4.53889
810.596	4.60958
810.892	4.65143
811.19	4.63485
811.487	4.59909
811.785	4.55051
812.081	4.48492
812.379	4.62563
812.677	4.65299
812.973	4.71859
813.27	4.77811
813.568	4.78273
813.864	4.74507
814.162	4.74655
814.459	4.74126
814.755	4.70305
815.053	4.54945
815.349	4.35136
815.646	4.27839
815.944	4.22117
816.24	4.19081
816.537	4.17
816.835	4.08154
817.131	4.0474
817.428	4.11359
817.724	4.1263
818.022	4.14365
818.318	4.20615
818.615	4.28272
818.911	4.28855
819.209	4.23029
819.506	4.15354
819.802	4.05069
820.099	3.7648
820.395	3.44054
820.692	3.04498
820.988	2.94438
821.286	3.44127
821.581	3.51876
821.879	3.692
822.175	3.7832
822.472	3.79788
822.768	3.81897
823.063	3.90585
823.361	3.77741
823.656	3.63379
823.954	3.48614
824.249	3.47366
824.547	3.45883
824.842	3.56109
825.138	3.66703
825.435	3.75109
825.731	3.81107
826.028	3.8635
826.324	3.90519
826.619	3.93608
826.916	3.95412
827.212	3.95198
827.508	3.97185
827.805	4.0329
828.1	4.13409
828.396	4.24312
828.693	4.31517
828.988	4.38903
829.284	4.50651
829.581	4.57152
829.876	4.65266
830.172	4.77118
830.469	4.8904
830.764	5.01003
831.06	5.07863
831.355	5.10225
831.652	5.20199
831.948	5.28446
832.243	5.33173
832.539	5.41754
832.836	5.43063
833.131	5.43874
833.426	5.46919
833.722	5.49706
834.017	5.56653
834.314	5.67651
834.609	5.7645
834.905	5.84559
835.2	5.92681
835.495	6.03049
835.792	6.1481
836.087	6.2437
836.383	6.3192
836.678	6.39085
836.973	6.45905
837.268	6.54459
837.564	6.6286
837.86	6.71481
838.156	6.78591
838.451	6.87601
838.746	6.92176
839.041	7.04275
839.336	7.16453
839.632	7.25146
839.927	7.35901
840.222	7.45648
840.517	7.54932
840.812	7.62563
841.107	7.61531
841.402	7.60234
841.697	7.55897
841.992	7.57461
842.288	7.5409
842.584	7.5559
842.879	7.56997
843.174	7.61155
843.468	7.71047
843.763	7.67441
844.058	7.68505
844.353	7.67608
844.648	7.67384
844.943	7.6479
845.238	7.6026
845.532	7.60009
845.827	7.60591
846.122	7.62247
846.417	7.63253
846.712	7.62369
847.007	7.61468
847.302	7.59156
847.597	7.5539
847.892	7.57172
848.185	7.53501
848.48	7.52259
848.775	7.51358
849.069	7.43054
849.364	7.39846
849.659	7.39419
849.954	7.38861
850.247	7.40385
850.542	7.37709
850.837	7.32093
851.131	7.23982
851.426	7.08952
851.719	6.9827
852.014	6.92577
852.309	6.91125
852.603	6.89648
852.898	6.90762
853.191	6.91851
853.486	6.92192
853.781	6.81468
854.075	6.63806
854.368	6.45751
854.663	6.28446
854.958	6.12103
855.252	5.99389
855.545	5.88151
855.84	5.81128
856.134	5.80934
856.427	5.84321
856.722	5.88172
857.016	5.92326
857.31	5.97176
857.604	5.98352
857.898	5.9691
858.192	5.91125
858.486	5.85029
858.78	5.78659
859.073	5.69272
859.368	5.53633
859.662	5.32699
859.955	5.08801
860.25	4.83731
860.543	4.48389
860.837	4.30862
861.131	4.20725
861.424	4.1594
861.719	4.12196
862.011	4.09724
862.306	4.11003
862.599	4.06753
862.893	3.96532
863.186	3.82516
863.48	3.75664
863.773	3.6985
864.067	3.68261
864.36	3.66601
864.654	3.56766
864.947	3.4512
865.241	3.32631
865.534	3.20097
865.828	3.02323
866.121	2.88583
866.415	2.88077
866.708	2.80562
867.002	2.75061
867.294	2.69699
867.588	2.62988
867.881	2.52708
868.175	2.38828
868.468	2.25622
868.76	2.14868
869.055	2.07364
869.347	2.00008
869.641	1.98608
869.934	1.94806
870.226	1.93807
870.52	1.93007
870.813	1.90659
871.105	1.89238
871.399	1.90457
871.692	1.9463
871.984	1.88324
872.278	1.79093
872.571	1.77514
872.863	1.73054
873.157	1.66636
873.45	1.51631
873.742	1.41533
874.035	1.28271
874.328	1.04068
874.621	0.914209
874.913	0.828398
875.207	0.841271
875.499	0.825239
875.792	0.799235
876.084	0.720599
876.378	0.625097
876.67	0.598358
876.963	0.582248
877.255	0.480703
877.547	0.439009
877.841	0.421653
878.133	0.439653
878.426	0.486002
878.718	0.490749
879.01	0.477141
879.302	0.485759
879.596	0.514782
879.888	0.541505
880.18	0.545449
880.473	0.546422
880.765	0.527316
881.057	0.488416
881.349	0.439807
881.643	0.375263
881.935	0.303723
882.227	0.233097
882.519	0.114304
882.811	0.0249295
883.103	-0.0475092
883.395	-0.122951
883.687	-0.181993
883.979	-0.23573
884.271	-0.279671
884.564	-0.314028
884.856	-0.293408
885.148	-0.238566
885.44	-0.145655
885.732	-0.0295074
886.024	0.0239135
886.316	0.0701443
886.608	0.136843
886.899	0.197352
887.191	0.200657
887.483	0.16719
887.775	0.091833
888.067	0.0399586
888.359	-0.0195141
888.651	0.0116307
888.943	0.0642539
889.235	0.110985
889.527	0.187537
889.818	0.237999
890.11	0.273356
890.402	0.346895
890.692	0.369031
890.984	0.382748
891.276	0.322741
891.568	0.264827
891.86	0.21909
892.151	0.258899
892.443	0.361623
892.735	0.558909
893.025	0.603276
893.317	0.668251
893.608	0.705468
893.9	0.762879
894.192	0.81153
894.483	0.749443
894.774	0.858812
895.065	1.01438
895.357	1.08764
895.649	1.11515
895.939	1.1305
896.23	1.13584
896.522	1.10897
896.814	1.12497
897.104	1.15111
897.395	1.13689
897.687	1.10851
897.978	1.05234
898.269	0.967391
898.56	0.934757
898.852	0.882315
899.142	0.809894
899.433	0.774281
899.725	0.777336
900.016	0.791778
900.306	0.88079
900.597	0.929441
900.889	1.02175
901.179	1.10494
901.47	1.18041
901.76	1.18795
902.052	1.1425
902.343	1.1043
902.633	1.05302
902.924	0.986676
903.216	0.906218
903.506	0.790069
903.797	0.719235
904.087	0.655275
904.378	0.606629
904.668	0.535225
904.959	0.47118
905.25	0.555183
905.54	0.602315
905.831	0.597231
906.121	0.58759
906.413	0.560419
906.702	0.536453
906.994	0.51289
907.283	0.515073
907.574	0.493488
907.864	0.442104
908.155	0.395785
908.445	0.307429
908.736	0.224069
909.026	0.161582
909.317	0.083771
909.607	-0.00809695
909.896	-0.134173
910.188	0.0229353
910.477	-0.0830507
910.768	-0.14933
911.058	-0.159975
911.349	-0.109708
911.638	-0.0289874
911.928	-0.0382722
